timestamps,TP9,AF7,AF8,TP10,Right AUX
1744258445.556,-128.906,-55.664,-262.207,-77.148,-133.301
1744258445.560,-12.207,-34.180,62.012,-48.828,-43.457
1744258445.564,47.852,-24.414,218.262,-25.391,-19.531
1744258445.568,-33.691,-36.133,-55.664,-45.410,-50.781
1744258445.572,-114.746,-45.410,-269.531,-61.523,7.812
1744258445.576,-65.430,-31.250,-22.949,-26.367,106.934
1744258445.580,31.250,-22.461,244.141,0.000,135.254
1744258445.584,-12.207,-42.480,43.457,-39.062,11.230
1744258445.588,-118.652,-57.617,-276.855,-79.102,-88.867
1744258445.591,-93.750,-47.363,-160.645,-47.363,-9.766
1744258445.595,26.855,-25.879,194.824,-6.348,170.898
1744258445.599,29.297,-23.926,159.668,-23.438,102.051
1744258445.599,29.297,-23.926,159.668,-23.438,102.051
1744258445.603,-74.219,-46.875,-209.961,-47.852,-77.637
1744258445.607,-103.516,-52.734,-230.957,-36.621,-19.043
1744258445.611,-7.812,-29.785,125.000,-9.277,83.984
1744258445.615,46.387,-22.461,195.801,-8.789,72.266
1744258445.619,-62.988,-40.039,-138.184,-41.992,-21.973
1744258445.623,-117.676,-41.016,-249.023,-42.480,-49.316
1744258445.627,-25.391,-27.832,58.105,1.465,11.230
1744258445.631,26.367,-22.461,235.840,17.578,30.762
1744258445.634,-42.480,-38.574,-22.461,-13.184,12.695
1744258445.638,-122.559,-49.805,-258.789,-54.199,-35.645
1744258445.642,-68.359,-37.598,-53.711,-47.852,-11.230
1744258445.646,32.715,-23.926,237.793,-15.625,-0.977
1744258445.650,7.812,-36.133,97.656,-28.320,-79.590
1744258445.654,-101.074,-52.246,-228.516,-60.059,-130.859
1744258445.658,-94.727,-44.434,-161.133,-55.664,-60.059
1744258445.662,26.367,-29.297,183.594,3.906,28.809
1744258445.666,24.414,-29.785,194.824,7.812,-79.590
1744258445.670,-97.656,-47.363,-152.344,-64.453,-114.746
1744258445.674,-129.395,-50.293,-231.445,-71.777,-13.672
1744258445.677,-15.625,-33.203,103.027,-17.578,49.805
1744258445.681,40.527,-30.762,213.379,-0.977,26.855
1744258445.685,-48.828,-46.387,-105.469,-31.738,-35.156
1744258445.689,-105.957,-51.758,-265.137,-64.453,60.547
1744258445.693,-24.902,-35.645,25.391,-30.762,166.016
1744258445.697,48.340,-31.250,225.586,2.930,95.703
1744258445.701,-20.508,-40.039,-7.324,-24.902,-26.855
1744258445.705,-115.234,-55.176,-281.738,-51.758,-66.895
1744258445.709,-67.383,-41.504,-113.281,-34.180,-37.109
1744258445.713,43.945,-15.625,205.078,4.395,44.434
1744258445.717,18.555,-22.461,111.816,0.488,-0.488
1744258445.720,-101.562,-47.363,-225.098,-62.988,-96.680
1744258445.724,-86.426,-49.316,-195.801,-79.590,-71.289
1744258445.728,27.832,-24.902,154.785,-10.254,11.230
1744258445.732,25.391,-32.715,164.551,4.395,-14.160
1744258445.736,-80.078,-53.223,-189.453,-50.781,-89.844
1744258445.740,-111.816,-47.852,-261.230,-50.293,-65.918
1744258445.744,-17.090,-32.227,77.637,-6.348,-24.414
1744258445.748,31.738,-27.344,213.867,-1.465,-89.355
1744258445.752,-52.734,-46.875,-92.285,-42.480,-158.203
1744258445.756,-106.445,-58.594,-285.156,-67.383,-134.277
1744258445.760,-27.344,-39.551,-27.344,-22.461,-67.871
1744258445.763,41.504,-21.484,215.820,5.859,-22.949
1744258445.767,-16.602,-31.738,28.809,-13.184,12.695
1744258445.771,-104.004,-50.781,-271.484,-54.688,-61.523
1744258445.775,-91.797,-49.805,-152.344,-34.668,-49.805
1744258445.779,10.254,-26.855,169.434,24.902,17.578
1744258445.783,24.902,-20.508,100.586,-11.719,-27.832
1744258445.787,-81.543,-39.551,-225.098,-66.406,-84.961
1744258445.791,-99.121,-43.457,-223.145,-65.918,-66.406
1744258445.795,8.301,-24.902,110.352,-10.254,14.160
1744258445.799,29.785,-24.902,148.438,-9.277,-14.160
1744258445.803,-62.500,-40.039,-158.691,-50.293,-90.332
1744258445.806,-95.703,-41.992,-262.207,-82.520,-22.461
1744258445.810,2.441,-23.438,49.316,-41.504,20.508
1744258445.814,66.406,-13.672,234.863,5.859,11.719
1744258445.818,-20.508,-36.621,-53.223,-27.344,22.461
1744258445.822,-97.168,-55.176,-295.898,-64.453,-2.930
1744258445.826,-38.574,-40.039,-72.266,-36.621,3.906
1744258445.830,57.617,-18.555,197.754,17.090,-17.090
1744258445.834,15.625,-27.832,41.504,-4.395,-88.867
1744258445.838,-106.445,-46.387,-269.531,-50.781,-60.547
1744258445.842,-100.586,-43.945,-173.340,-31.738,-25.391
1744258445.846,13.672,-26.367,174.316,13.672,-18.066
1744258445.849,30.762,-23.926,149.414,12.207,57.129
1744258445.853,-85.938,-42.480,-196.289,-55.176,-14.648
1744258445.857,-111.328,-40.039,-215.820,-74.219,-34.180
1744258445.861,0.000,-23.438,121.094,-19.043,41.016
1744258445.865,38.574,-27.344,195.801,-13.672,-22.461
1744258445.869,-60.547,-49.805,-130.859,-58.105,-67.383
1744258445.873,-108.398,-52.734,-271.484,-72.754,-34.180
1744258445.877,-26.855,-29.785,42.480,-35.645,-45.410
1744258445.881,21.484,-23.438,242.676,-13.184,-56.641
1744258445.885,-31.250,-49.805,-30.273,-31.250,-126.465
1744258445.888,-99.121,-67.871,-291.016,-77.637,-107.422
1744258445.892,-67.383,-51.270,-96.191,-64.453,-55.176
1744258445.896,25.391,-29.297,205.566,3.906,-63.477
1744258445.900,-9.766,-34.180,42.480,-46.875,-39.551
1744258445.904,-116.699,-42.969,-263.672,-103.027,15.625
1744258445.908,-91.309,-31.250,-175.781,-61.523,15.625
1744258445.912,25.879,-21.484,149.414,-11.719,-8.789
1744258445.916,32.715,-29.297,128.418,-10.742,-38.574
1744258445.920,-81.543,-48.828,-225.586,-53.711,-143.066
1744258445.924,-111.816,-52.734,-274.414,-66.895,-120.605
1744258445.927,-8.301,-35.156,71.777,-39.551,-9.766
1744258445.931,30.273,-23.926,192.383,-12.695,-57.129
1744258445.935,-59.082,-41.992,-122.559,-25.391,-143.066
1744258445.939,-119.141,-57.129,-308.594,-68.359,-100.098
1744258445.943,-45.898,-39.551,-27.832,-47.852,7.812
1744258445.947,42.480,-24.414,208.984,-14.648,39.551
1744258445.951,-17.578,-35.645,-1.953,-49.316,-29.785
1744258445.955,-110.352,-49.805,-280.273,-71.289,-91.309
1744258445.959,-63.965,-40.039,-138.672,-46.875,-53.711
1744258445.963,31.738,-20.020,176.270,-10.742,38.574
1744258445.967,12.207,-23.438,90.820,-19.043,2.930
1744258445.970,-79.590,-39.062,-246.582,-60.059,-85.449
1744258445.974,-89.844,-40.039,-210.938,-65.918,-6.836
1744258445.978,0.488,-23.926,125.000,-27.832,95.703
1744258445.982,34.180,-17.578,153.320,-26.367,8.789
1744258445.986,-68.848,-35.156,-189.941,-58.594,-123.535
1744258445.990,-116.211,-31.250,-267.090,-56.152,-94.238
1744258445.994,-18.555,-9.277,67.383,-17.090,41.992
1744258445.998,42.480,-5.859,223.633,4.883,116.211
1744258446.002,-27.832,-23.926,-66.406,-14.160,-22.461
1744258446.006,-115.234,-38.574,-283.203,-52.246,-101.562
1744258446.010,-52.246,-29.297,-41.992,-27.832,5.371
1744258446.013,42.969,-16.602,212.402,16.602,20.996
1744258446.017,-9.766,-29.785,20.996,-26.855,-42.480
1744258446.021,-101.562,-47.363,-274.902,-71.777,-98.145
1744258446.025,-76.660,-32.715,-135.254,-37.598,-63.477
1744258446.029,29.297,-10.742,193.359,4.395,10.742
1744258446.033,27.832,-23.438,112.305,-11.230,-73.242
1744258446.037,-80.078,-44.434,-229.004,-73.730,-146.973
1744258446.041,-83.496,-39.551,-216.797,-70.312,-67.871
1744258446.045,29.297,-20.996,140.625,-12.207,-2.441
1744258446.049,62.500,-23.926,197.754,-7.324,-23.438
1744258446.053,-55.176,-42.480,-142.578,-50.781,-34.180
1744258446.056,-121.094,-49.316,-273.926,-72.754,20.508
1744258446.060,-21.484,-31.250,34.668,-21.973,62.988
1744258446.064,39.551,-22.461,214.355,16.602,44.434
1744258446.068,-27.832,-36.133,-51.270,-34.668,-20.996
1744258446.072,-95.215,-44.922,-291.016,-67.383,-99.609
1744258446.076,-47.363,-36.133,-72.266,-35.156,-22.461
1744258446.080,31.738,-21.484,201.660,-5.859,-17.090
1744258446.084,-2.930,-23.926,44.434,-16.602,-70.312
1744258446.088,-105.469,-38.574,-263.672,-59.570,-99.121
1744258446.092,-94.727,-30.273,-163.086,-46.387,-62.012
1744258446.095,17.090,-17.090,177.246,-13.184,75.684
1744258446.099,30.762,-29.785,128.418,-24.414,74.707
1744258446.103,-95.703,-50.293,-227.051,-49.805,-19.531
1744258446.107,-126.953,-45.410,-256.836,-56.152,-15.137
1744258446.111,-5.859,-22.949,83.008,-15.137,10.742
1744258446.115,34.668,-21.484,192.383,3.906,-62.988
1744258446.119,-53.711,-46.875,-134.766,-43.457,-79.590
1744258446.123,-93.750,-56.152,-296.875,-75.195,-31.250
1744258446.127,-22.949,-34.180,1.465,-45.898,-47.363
1744258446.131,35.645,-21.973,201.172,-7.324,-60.547
1744258446.135,-30.273,-37.109,-31.250,-27.344,-64.941
1744258446.138,-116.699,-47.852,-263.672,-58.105,-106.934
1744258446.142,-67.871,-38.086,-79.590,-41.504,-58.105
1744258446.146,31.738,-22.461,214.355,1.953,45.898
1744258446.150,10.254,-32.715,72.754,-18.555,25.879
1744258446.154,-94.238,-60.059,-277.344,-62.988,-28.809
1744258446.158,-96.680,-48.828,-208.984,-44.434,-5.371
1744258446.162,11.230,-22.461,156.738,-18.066,125.000
1744258446.166,22.461,-29.785,141.113,-19.043,27.344
1744258446.170,-86.914,-47.363,-219.727,-74.219,-80.566
1744258446.174,-117.188,-45.898,-278.809,-90.332,-70.312
1744258446.178,-11.230,-27.344,64.453,-28.320,-59.082
1744258446.181,41.016,-22.461,187.012,-11.719,-0.977
1744258446.185,-48.828,-30.762,-107.910,-44.434,-9.766
1744258446.189,-120.117,-41.504,-285.645,-64.453,-50.781
1744258446.193,-54.199,-35.645,-30.273,-34.668,21.973
1744258446.197,24.902,-24.414,188.965,-8.789,22.461
1744258446.201,-25.391,-31.738,-16.602,-35.156,-78.613
1744258446.205,-120.117,-44.434,-276.855,-39.551,-36.133
1744258446.209,-91.309,-40.039,-136.230,-21.484,78.613
1744258446.213,24.414,-20.020,170.410,-26.367,27.344
1744258446.217,20.996,-27.344,76.660,-43.457,-46.875
1744258446.221,-78.613,-48.828,-267.578,-77.637,-69.336
1744258446.224,-94.238,-43.457,-231.934,-77.148,8.789
1744258446.228,2.930,-21.484,123.535,-14.648,42.480
1744258446.232,33.691,-17.090,170.410,-5.371,-21.973
1744258446.236,-56.641,-36.621,-175.781,-85.449,-55.664
1744258446.240,-102.051,-41.504,-275.391,-95.703,-109.863
1744258446.244,-22.949,-25.879,36.133,-35.645,-58.594
1744258446.248,28.320,-19.043,171.875,-20.508,50.293
1744258446.252,-37.598,-32.715,-79.102,-48.340,-22.461
1744258446.256,-98.633,-41.992,-265.625,-71.289,-62.500
1744258446.260,-43.945,-30.273,-49.316,-40.527,-13.184
1744258446.263,42.969,-15.137,203.613,13.672,-101.074
1744258446.267,3.418,-26.367,9.277,-34.668,-137.207
1744258446.271,-96.191,-39.062,-280.762,-72.754,-60.547
1744258446.275,-72.754,-29.297,-144.043,-32.715,-5.859
1744258446.279,41.504,-7.812,190.918,-0.977,28.809
1744258446.283,37.598,-15.137,129.883,-6.836,-24.902
1744258446.287,-80.078,-43.457,-220.215,-56.152,-141.113
1744258446.291,-102.539,-45.410,-232.910,-71.289,-123.535
1744258446.295,3.906,-20.020,107.910,-22.461,-8.789
1744258446.299,49.316,-14.648,169.434,-3.906,-15.625
1744258446.303,-47.852,-31.738,-149.902,-51.270,3.906
1744258446.306,-105.957,-32.715,-256.836,-71.289,11.230
1744258446.310,-13.184,-13.672,41.504,-20.996,-13.184
1744258446.314,54.688,-7.812,206.055,-3.418,-35.645
1744258446.318,-15.137,-25.879,-53.711,-58.105,-65.918
1744258446.322,-96.191,-36.133,-269.043,-75.195,-61.035
1744258446.326,-32.715,-20.020,-53.711,-43.457,-48.340
1744258446.330,58.594,-10.254,206.543,-10.742,-49.805
1744258446.334,14.160,-28.320,54.199,-26.855,-90.332
1744258446.338,-91.309,-40.039,-261.230,-59.082,-123.047
1744258446.342,-86.914,-34.668,-180.664,-32.227,-46.875
1744258446.345,20.020,-17.578,165.527,-3.418,-35.645
1744258446.349,31.738,-17.578,154.785,-12.207,-62.988
1744258446.353,-76.660,-40.527,-191.406,-46.387,-93.750
1744258446.357,-100.098,-40.527,-231.934,-60.059,-84.961
1744258446.361,3.906,-25.391,93.262,-10.254,-32.227
1744258446.365,39.551,-22.949,182.129,0.000,-53.223
1744258446.369,-51.758,-39.062,-130.371,-43.945,-57.617
1744258446.373,-104.980,-41.016,-263.184,-65.918,-25.391
1744258446.377,-13.672,-24.414,17.578,-36.621,-37.598
1744258446.381,60.547,-17.090,204.590,-15.137,-21.973
1744258446.385,-12.695,-32.227,-37.598,-26.367,-55.664
1744258446.388,-103.027,-47.363,-302.246,-63.477,-112.305
1744258446.392,-54.688,-34.668,-123.535,-48.828,-91.797
1744258446.396,43.945,-7.812,187.988,9.277,-20.508
1744258446.400,17.090,-13.672,74.219,-13.672,-13.672
1744258446.404,-72.754,-31.738,-251.953,-74.219,-12.207
1744258446.408,-71.289,-21.973,-193.359,-70.801,-1.465
1744258446.412,16.113,-6.348,141.113,-7.812,-1.953
1744258446.416,42.969,-10.254,147.949,27.832,-11.230
1744258446.420,-68.359,-29.297,-179.688,-55.176,23.926
1744258446.424,-125.000,-34.668,-240.723,-98.633,76.172
1744258446.428,-20.020,-18.066,84.961,-39.062,80.566
1744258446.431,34.180,-18.066,188.477,-19.043,-34.668
1744258446.435,-62.012,-39.551,-112.305,-52.246,-133.789
1744258446.439,-120.117,-39.551,-275.391,-78.125,-123.047
1744258446.443,-40.527,-17.090,-1.953,-47.363,-45.410
1744258446.447,32.715,-11.719,212.891,-8.789,-29.785
1744258446.451,-17.090,-30.273,-5.371,-31.738,-133.301
1744258446.455,-107.422,-43.457,-268.555,-70.801,-108.398
1744258446.459,-64.453,-30.762,-123.535,-73.730,-43.945
1744258446.463,46.387,-12.695,188.965,-30.273,-75.684
1744258446.467,30.273,-15.137,127.930,-37.598,-106.445
1744258446.471,-57.617,-36.133,-197.754,-81.055,-143.066
1744258446.474,-68.359,-44.922,-196.289,-58.594,-75.684
1744258446.478,15.137,-24.902,134.277,5.371,-14.160
1744258446.482,36.133,-20.996,180.176,-4.395,-31.250
1744258446.486,-76.660,-39.551,-149.414,-59.570,-99.609
1744258446.490,-119.141,-39.551,-243.652,-67.383,-110.352
1744258446.494,-32.227,-22.461,66.406,-21.484,-43.945
1744258446.498,13.672,-19.043,196.777,-10.254,-37.598
1744258446.502,-56.152,-31.738,-57.617,-53.223,-18.555
1744258446.506,-113.281,-37.109,-247.070,-78.125,-40.527
1744258446.510,-53.223,-21.484,-23.926,-28.809,-34.180
1744258446.514,28.809,-5.371,243.652,12.695,67.383
1744258446.517,-7.812,-24.414,57.129,-47.363,39.551
1744258446.521,-102.539,-41.992,-244.629,-90.332,33.691
1744258446.525,-79.102,-33.203,-133.301,-48.828,96.680
1744258446.529,22.461,-13.672,191.895,-0.977,72.754
1744258446.533,28.320,-12.695,163.574,0.000,-12.207
1744258446.537,-76.172,-39.062,-178.711,-49.805,-82.031
1744258446.541,-102.539,-44.434,-214.844,-48.340,-77.148
1744258446.545,0.488,-27.832,116.699,2.930,-73.730
1744258446.549,29.785,-26.855,179.199,12.207,-84.961
1744258446.553,-86.914,-41.016,-149.902,-33.691,-94.727
1744258446.556,-132.812,-39.062,-264.648,-63.965,-38.574
1744258446.560,-11.719,-9.766,50.293,-21.484,59.082
1744258446.564,55.664,-1.953,217.285,4.395,-5.859
1744258446.568,-20.996,-19.531,-33.691,-36.133,-40.527
1744258446.572,-105.957,-40.527,-269.043,-72.266,-11.719
1744258446.576,-52.246,-30.273,-77.148,-29.785,47.363
1744258446.580,39.551,-7.324,206.543,12.207,156.738
1744258446.584,1.953,-16.113,70.801,-27.832,95.703
1744258446.588,-99.121,-36.133,-245.117,-94.238,-0.488
1744258446.592,-91.797,-35.156,-170.898,-86.914,28.809
1744258446.596,16.602,-14.648,169.922,-26.855,58.594
1744258446.599,32.227,-15.137,156.738,-18.066,-19.531
1744258446.603,-81.543,-32.715,-182.129,-77.148,-33.691
1744258446.607,-113.770,-31.738,-214.844,-74.219,27.832
1744258446.611,-7.812,-19.043,108.887,-23.926,3.418
1744258446.615,39.062,-20.996,201.172,-9.277,-31.738
1744258446.619,-57.129,-38.086,-108.887,-32.227,-57.129
1744258446.623,-108.887,-37.109,-260.254,-66.895,-58.594
1744258446.627,-21.484,-24.902,16.602,-40.039,34.668
1744258446.631,37.109,-15.625,230.469,-1.953,8.301
1744258446.635,-25.391,-30.273,-14.160,-22.949,-145.020
1744258446.639,-110.352,-49.316,-280.273,-82.031,-192.871
1744258446.642,-68.848,-42.480,-106.934,-59.082,-99.121
1744258446.646,41.016,-23.926,193.359,-0.488,-53.711
1744258446.650,14.160,-31.250,95.703,-19.043,-23.926
1744258446.654,-102.051,-52.246,-227.539,-51.758,-89.844
1744258446.658,-102.539,-46.387,-189.941,-58.105,-191.895
1744258446.662,4.395,-30.273,140.137,-17.090,-109.863
1744258446.666,19.043,-26.855,147.461,-9.766,-122.559
1744258446.670,-73.730,-39.551,-183.594,-68.359,-199.707
1744258446.674,-105.469,-40.527,-253.418,-66.895,-157.715
1744258446.678,-15.137,-18.066,71.289,-11.230,-67.871
1744258446.682,34.180,-15.625,202.637,-24.414,-93.262
1744258446.685,-45.410,-38.574,-92.773,-79.590,-104.980
1744258446.689,-111.328,-52.734,-288.086,-98.633,-65.430
1744258446.693,-37.109,-34.180,-26.855,-56.641,-39.551
1744258446.697,40.039,-13.672,209.473,3.906,33.691
1744258446.701,-11.719,-23.438,4.883,-31.250,-30.273
1744258446.705,-99.609,-38.574,-269.531,-87.891,-70.801
1744258446.709,-74.707,-30.273,-125.977,-51.758,-89.844
1744258446.713,24.414,-20.996,179.688,-16.113,-74.707
1744258446.717,16.113,-28.320,92.285,-30.273,25.391
1744258446.721,-99.609,-47.852,-225.586,-56.641,34.668
1744258446.724,-106.445,-44.922,-200.195,-39.062,1.953
1744258446.728,-3.906,-30.273,125.000,3.418,0.000
1744258446.732,18.555,-28.809,166.504,-3.418,-2.930
1744258446.736,-58.594,-41.016,-159.180,-47.363,-35.645
1744258446.740,-77.637,-41.504,-254.883,-55.664,-23.438
1744258446.744,-15.625,-24.414,55.176,-16.113,33.203
1744258446.748,19.531,-17.090,214.355,-1.465,22.461
1744258446.752,-43.457,-33.203,-56.641,-42.969,-71.289
1744258446.756,-113.281,-48.340,-282.715,-65.918,-74.219
1744258446.760,-59.082,-35.156,-57.129,-27.832,-7.324
1744258446.763,21.973,-24.902,202.148,24.414,-13.184
1744258446.767,-17.578,-38.574,34.668,-15.137,-37.598
1744258446.771,-113.770,-49.316,-249.023,-74.219,-39.062
1744258446.775,-86.426,-39.062,-139.160,-62.012,-31.738
1744258446.779,20.020,-21.484,175.293,-19.531,-22.949
1744258446.783,14.648,-24.902,120.117,-24.902,0.000
1744258446.787,-86.914,-41.504,-215.332,-79.102,-2.930
1744258446.791,-100.098,-41.504,-226.074,-73.242,-11.719
1744258446.795,18.555,-17.578,130.371,-5.371,37.109
1744258446.799,62.988,-14.160,191.406,29.297,-54.688
1744258446.803,-39.551,-33.691,-119.629,-17.578,-86.426
1744258446.806,-103.027,-43.457,-254.883,-63.965,-0.488
1744258446.810,-16.113,-29.297,18.555,-17.578,51.270
1744258446.814,59.082,-11.230,220.215,26.855,80.078
1744258446.818,-11.230,-30.762,-34.180,-21.484,30.762
1744258446.822,-104.980,-50.293,-289.551,-63.477,47.852
1744258446.826,-56.641,-34.668,-90.820,-41.016,64.941
1744258446.830,42.480,-20.996,185.547,-12.695,-14.160
1744258446.834,10.742,-31.250,68.359,-10.742,-80.078
1744258446.838,-90.332,-50.293,-233.887,-62.500,-174.316
1744258446.842,-98.633,-39.551,-158.691,-63.477,-162.598
1744258446.846,-0.488,-21.973,168.457,-2.930,-24.414
1744258446.849,20.996,-32.715,146.484,-3.418,-42.969
1744258446.853,-85.449,-49.805,-201.172,-55.176,-91.797
1744258446.857,-111.816,-42.480,-246.094,-45.410,-23.438
1744258446.861,-6.836,-24.414,105.957,0.488,-3.906
1744258446.865,35.156,-28.320,200.684,2.441,-60.547
1744258446.869,-54.199,-48.828,-121.582,-40.039,-77.148
1744258446.873,-107.422,-53.711,-277.832,-72.266,-82.031
1744258446.877,-38.086,-37.598,-1.953,-31.250,-35.645
1744258446.881,22.461,-25.879,210.938,6.348,66.895
1744258446.885,-30.762,-30.273,-2.441,-33.203,40.039
1744258446.889,-113.281,-41.016,-251.465,-66.895,-1.465
1744258446.892,-59.082,-37.598,-98.145,-46.875,64.941
1744258446.896,53.223,-23.926,191.406,-9.277,53.711
1744258446.900,21.973,-31.250,80.566,-16.602,28.320
1744258446.904,-99.609,-51.270,-250.977,-65.430,-20.996
1744258446.908,-97.656,-47.363,-197.754,-50.293,18.066
1744258446.912,14.648,-25.391,158.691,-5.859,89.355
1744258446.916,38.574,-28.809,159.668,-14.160,19.043
1744258446.920,-54.199,-46.387,-179.688,-62.988,-87.891
1744258446.924,-98.145,-52.734,-266.113,-70.801,-49.316
1744258446.928,-19.043,-37.109,49.805,-19.043,2.930
1744258446.932,39.062,-25.391,196.777,4.883,-41.992
1744258446.935,-42.480,-41.504,-83.008,-26.855,-86.426
1744258446.939,-116.699,-52.734,-284.180,-59.570,-100.586
1744258446.943,-37.598,-32.227,-26.367,-35.645,-51.270
1744258446.947,46.875,-24.902,209.473,-14.648,25.391
1744258446.951,-17.578,-43.457,0.488,-45.410,-33.691
1744258446.955,-104.004,-54.199,-284.180,-70.312,-106.445
1744258446.959,-67.383,-37.109,-141.113,-43.945,57.617
1744258446.963,34.668,-19.531,194.824,12.207,77.148
1744258446.967,27.344,-27.344,119.629,5.859,-19.531
1744258446.971,-88.867,-41.992,-233.398,-64.941,-75.684
1744258446.974,-95.215,-31.738,-220.703,-79.102,-67.383
1744258446.978,-1.465,-11.719,135.254,-25.391,26.367
1744258446.982,26.367,-11.230,196.289,-1.953,-32.227
1744258446.986,-62.988,-29.785,-138.184,-47.363,-143.555
1744258446.990,-112.793,-41.992,-256.348,-63.965,-140.137
1744258446.994,-21.973,-33.691,35.645,-13.672,-39.062
1744258446.998,48.828,-26.367,188.477,9.277,15.137
1744258447.002,-30.762,-39.062,-74.219,-39.551,-109.375
1744258447.006,-115.723,-48.340,-268.066,-62.988,-156.250
1744258447.010,-52.246,-39.551,-49.805,-30.273,-3.906
1744258447.014,47.852,-23.926,205.566,11.719,29.297
1744258447.017,20.508,-28.809,39.062,-6.836,-50.293
1744258447.021,-93.262,-40.527,-265.625,-51.270,-86.426
1744258447.025,-84.961,-39.551,-154.785,-35.156,-4.883
1744258447.029,25.879,-24.414,194.824,8.301,23.926
1744258447.033,32.227,-25.879,165.527,-3.906,-82.520
1744258447.037,-83.984,-56.641,-204.590,-56.152,-88.867
1744258447.041,-91.797,-57.129,-235.352,-51.758,-47.363
1744258447.045,19.043,-31.738,106.934,-23.926,-2.441
1744258447.049,29.785,-34.668,162.598,-28.320,107.910
1744258447.053,-56.152,-47.852,-152.344,-57.617,99.121
1744258447.057,-95.703,-46.875,-270.996,-43.945,31.738
1744258447.060,-18.066,-29.785,28.320,-13.672,50.293
1744258447.064,49.805,-19.043,216.309,-17.578,-19.043
1744258447.068,-1.953,-28.320,-38.086,-38.574,-112.793
1744258447.072,-103.027,-42.969,-279.785,-71.289,-81.543
1744258447.076,-70.801,-33.691,-77.637,-51.758,22.949
1744258447.080,40.039,-16.113,207.031,-13.184,63.477
1744258447.084,4.395,-28.809,62.988,-6.348,-9.766
1744258447.088,-102.539,-44.434,-266.113,-40.039,-40.527
1744258447.092,-84.473,-33.203,-200.684,-43.945,-8.789
1744258447.096,22.949,-12.695,143.066,-1.465,-2.930
1744258447.099,42.969,-10.254,157.227,-5.371,-40.527
1744258447.103,-63.965,-37.109,-195.312,-60.059,-60.059
1744258447.107,-107.910,-41.504,-267.578,-72.754,-36.133
1744258447.111,3.906,-20.508,59.082,-10.254,28.809
1744258447.115,52.734,-15.137,182.129,3.906,33.691
1744258447.119,-38.086,-30.273,-113.770,-62.988,-19.531
1744258447.123,-97.168,-33.691,-268.066,-74.219,-45.410
1744258447.127,-23.438,-17.090,15.625,-20.996,50.293
1744258447.131,53.223,-16.113,210.449,-11.230,5.371
1744258447.135,-15.137,-31.250,-21.484,-34.180,-98.633
1744258447.139,-112.305,-41.504,-286.621,-51.758,-92.773
1744258447.142,-66.895,-30.273,-120.605,-38.574,-62.988
1744258447.146,25.879,-13.184,190.430,23.926,-23.438
1744258447.150,7.324,-22.949,96.680,2.930,-17.578
1744258447.154,-106.934,-44.922,-241.699,-74.219,-46.875
1744258447.158,-99.121,-37.598,-211.426,-53.223,-73.242
1744258447.162,27.832,-10.254,150.391,11.230,-2.930
1744258447.166,36.621,-16.602,166.016,-10.254,5.859
1744258447.170,-73.242,-36.133,-174.316,-65.918,-155.273
1744258447.174,-113.281,-37.598,-253.906,-52.246,-192.383
1744258447.178,-36.621,-21.973,69.336,1.465,-13.672
1744258447.181,49.316,-19.043,198.242,-0.488,10.254
1744258447.185,-34.668,-40.039,-110.840,-34.668,-120.605
1744258447.189,-135.742,-47.852,-288.086,-64.453,-111.816
1744258447.193,-44.922,-28.809,-19.531,-50.781,-98.633
1744258447.197,56.152,-20.996,212.402,-20.996,-92.285
1744258447.201,0.000,-37.598,7.812,-37.598,-63.477
1744258447.205,-82.031,-46.387,-278.809,-60.547,-130.371
1744258447.209,-60.547,-30.273,-137.207,-45.410,-83.984
1744258447.213,22.461,-11.230,194.336,-4.395,0.488
1744258447.217,41.504,-10.742,132.324,0.977,-37.109
1744258447.221,-102.539,-35.156,-212.402,-50.293,-78.613
1744258447.224,-122.559,-27.832,-195.801,-53.223,-28.320
1744258447.228,39.062,-3.906,137.695,-7.812,65.918
1744258447.232,45.898,-15.625,159.668,-2.930,-26.367
1744258447.236,-73.730,-37.598,-169.922,-41.016,-128.906
1744258447.240,-104.004,-40.039,-267.578,-79.590,-115.723
1744258447.244,-29.785,-23.438,46.387,-29.297,-9.766
1744258447.248,36.621,-19.043,213.867,1.465,-24.902
1744258447.252,-31.250,-37.109,-66.895,-57.129,-130.371
1744258447.256,-112.305,-48.828,-283.203,-89.355,-156.250
1744258447.260,-39.062,-36.133,-56.152,-48.340,-42.480
1744258447.264,62.012,-15.625,213.379,-7.324,32.227
1744258447.267,8.301,-29.785,44.922,-37.598,-36.133
1744258447.271,-111.328,-54.199,-261.719,-84.961,-87.402
1744258447.275,-66.895,-43.457,-163.086,-66.406,-42.969
1744258447.279,56.641,-13.184,167.480,-23.438,-25.879
1744258447.283,35.156,-20.508,131.836,-22.949,21.973
1744258447.287,-75.195,-45.410,-203.613,-63.965,-21.484
1744258447.291,-83.496,-43.945,-245.117,-54.688,-69.336
1744258447.295,-12.695,-27.832,90.820,-4.883,-1.465
1744258447.299,56.152,-21.973,179.688,9.766,-30.762
1744258447.303,-0.488,-35.156,-145.996,-32.227,-93.750
1744258447.307,-76.172,-42.480,-283.691,-63.477,-100.098
1744258447.310,-5.859,-29.297,17.578,-20.508,-71.289
1744258447.314,61.523,-23.438,204.102,34.668,-66.895
1744258447.318,10.742,-34.180,-40.039,-35.645,-79.590
1744258447.322,-78.125,-51.270,-290.527,-89.355,-83.984
1744258447.326,-42.969,-40.527,-97.656,-37.598,-41.016
1744258447.330,61.035,-19.531,193.848,1.465,28.320
1744258447.334,38.086,-25.391,60.547,-23.926,-34.180
1744258447.338,-46.387,-38.574,-255.859,-61.523,-97.656
1744258447.342,-63.477,-35.156,-192.871,-39.551,-14.160
1744258447.346,50.293,-21.484,135.254,0.488,49.316
1744258447.350,72.266,-25.879,122.070,-16.602,4.883
1744258447.353,-33.203,-43.945,-211.426,-49.316,-49.805
1744258447.357,-53.223,-43.945,-260.742,-35.645,-18.066
1744258447.361,55.176,-21.973,70.801,-0.977,-6.836
1744258447.365,114.746,-16.602,198.730,24.414,20.996
1744258447.369,9.277,-41.504,-123.535,-23.926,-52.734
1744258447.373,-41.504,-51.758,-308.594,-51.270,-43.457
1744258447.377,41.016,-29.785,-25.879,-3.906,84.961
1744258447.381,100.586,-10.742,218.750,23.438,77.637
1744258447.385,32.715,-31.738,-8.301,-2.441,26.855
1744258447.389,-59.082,-48.340,-293.457,-44.434,36.621
1744258447.392,-18.066,-34.180,-134.277,-33.203,40.039
1744258447.396,118.652,-17.090,196.777,16.113,-5.859
1744258447.400,95.703,-27.832,115.723,21.973,-26.367
1744258447.404,-37.109,-46.387,-229.004,-20.996,-56.641
1744258447.408,-26.367,-39.551,-206.055,-48.340,-60.059
1744258447.412,93.750,-24.902,135.742,1.465,36.621
1744258447.416,107.910,-31.738,154.785,5.371,-14.160
1744258447.420,-23.438,-48.828,-174.805,-43.945,-140.137
1744258447.424,-42.480,-43.945,-253.418,-51.270,-165.527
1744258447.428,59.082,-22.949,59.570,-12.207,-57.617
1744258447.432,103.516,-19.043,196.289,3.418,18.555
1744258447.435,45.410,-37.598,-86.914,-10.742,-112.793
1744258447.439,-24.902,-48.828,-287.109,-41.992,-132.324
1744258447.443,36.621,-35.156,-41.992,-32.227,-6.836
1744258447.447,113.281,-21.973,211.914,5.371,51.270
1744258447.451,78.125,-25.879,43.457,-18.555,-65.430
1744258447.455,-17.090,-42.969,-251.953,-46.387,-127.930
1744258447.459,-10.254,-34.180,-126.465,-22.949,1.953
1744258447.463,112.793,-14.648,188.477,17.578,4.883
1744258447.467,104.004,-25.391,107.910,-9.277,17.090
1744258447.471,-4.883,-36.133,-218.262,-65.918,-11.719
1744258447.474,-29.785,-31.250,-210.449,-58.105,-87.402
1744258447.478,62.012,-16.113,119.141,-0.977,3.418
1744258447.482,110.352,-14.160,179.688,8.301,21.973
1744258447.486,-13.184,-35.156,-138.184,-39.551,-52.246
1744258447.490,-62.012,-35.156,-251.465,-51.758,-77.637
1744258447.494,42.969,-20.020,50.293,-19.043,-72.754
1744258447.498,109.375,-7.324,230.469,3.906,-34.180
1744258447.502,41.504,-25.879,-40.039,-25.391,-91.309
1744258447.506,-90.820,-49.805,-280.762,-64.453,-93.750
1744258447.510,-11.719,-32.715,-63.965,-25.391,-11.719
1744258447.514,108.887,-17.090,208.496,24.902,-86.914
1744258447.517,74.219,-21.973,56.152,-4.883,-171.875
1744258447.521,-41.016,-36.621,-249.512,-68.359,-104.980
1744258447.525,-54.199,-34.668,-158.203,-48.340,-46.875
1744258447.529,59.082,-18.066,179.199,1.953,6.836
1744258447.533,78.125,-28.320,138.184,-1.465,23.438
1744258447.537,-33.203,-41.016,-199.219,-46.875,-38.086
1744258447.541,-52.246,-36.133,-227.051,-52.246,-17.578
1744258447.545,53.223,-20.020,112.793,-11.230,59.570
1744258447.549,96.191,-17.578,192.383,-19.043,-12.207
1744258447.553,-9.277,-35.156,-135.254,-67.383,-133.301
1744258447.557,-55.176,-42.969,-288.574,-72.266,-101.074
1744258447.560,-2.441,-30.762,-9.766,-38.086,24.902
1744258447.564,41.992,-17.578,201.172,-8.789,61.523
1744258447.568,45.898,-25.391,-20.996,-30.762,33.691
1744258447.572,-48.340,-48.828,-280.762,-64.941,38.574
1744258447.576,-40.039,-35.156,-87.402,-32.715,34.668
1744258447.580,46.875,-19.531,201.660,-2.930,8.301
1744258447.584,65.430,-32.227,69.824,-17.090,-51.270
1744258447.588,-50.293,-46.387,-241.699,-50.781,-66.895
1744258447.592,-63.965,-43.457,-176.270,-45.898,21.484
1744258447.596,48.828,-27.344,153.320,2.930,51.758
1744258447.599,50.781,-23.926,166.504,4.395,-29.297
1744258447.603,-50.293,-43.945,-175.293,-57.129,-89.355
1744258447.607,-73.242,-44.922,-251.465,-74.219,-88.379
1744258447.611,29.785,-19.531,83.496,-26.367,-21.484
1744258447.615,53.223,-9.766,214.844,17.090,-62.012
1744258447.619,-27.344,-33.691,-87.891,-47.363,-161.133
1744258447.623,-56.641,-41.504,-268.066,-96.191,-113.281
1744258447.627,24.902,-23.926,-4.395,-41.504,-68.848
1744258447.631,82.520,-17.578,217.285,3.906,-97.168
1744258447.635,8.789,-28.809,16.602,-27.344,-128.418
1744258447.639,-103.027,-42.969,-245.605,-66.406,-190.430
1744258447.642,-57.129,-32.227,-111.816,-42.480,-162.109
1744258447.646,83.496,-13.184,199.219,4.395,-30.762
1744258447.650,60.059,-30.762,96.191,-8.301,11.230
1744258447.654,-52.246,-46.387,-248.535,-65.918,-20.996
1744258447.658,-49.316,-40.039,-219.238,-71.777,84.961
1744258447.662,58.594,-18.555,135.742,-14.160,160.645
1744258447.666,102.539,-18.555,159.668,10.254,126.465
1744258447.670,-17.578,-40.039,-178.711,-42.480,50.781
1744258447.674,-88.379,-42.480,-257.324,-53.711,20.020
1744258447.678,50.781,-22.949,57.617,-2.441,54.199
1744258447.682,119.141,-17.090,207.520,20.508,107.910
1744258447.685,-3.418,-31.738,-62.500,-21.973,126.953
1744258447.689,-58.594,-42.969,-267.090,-67.871,40.039
1744258447.693,-16.602,-28.809,-29.785,-31.250,107.910
1744258447.697,78.125,-17.578,221.191,14.160,99.121
1744258447.701,73.730,-27.832,33.691,1.953,-36.133
1744258447.705,-44.922,-41.504,-269.531,-42.969,-14.648
1744258447.709,-37.109,-31.738,-142.578,-47.363,49.805
1744258447.713,92.773,-14.648,195.312,-0.488,56.152
1744258447.717,70.312,-20.996,141.602,-6.348,-11.230
1744258447.721,-62.012,-41.016,-207.031,-58.105,-11.719
1744258447.725,-72.266,-38.086,-214.844,-39.062,14.160
1744258447.728,29.785,-11.719,131.348,4.883,-0.488
1744258447.732,55.176,-9.766,198.242,-14.648,-29.297
1744258447.736,-27.832,-33.691,-137.207,-59.082,-44.922
1744258447.740,-72.266,-34.668,-262.207,-65.918,6.348
1744258447.744,-0.977,-19.043,29.785,-8.789,17.578
1744258447.748,77.637,-15.625,204.590,20.508,55.176
1744258447.752,-8.301,-33.691,-49.805,-13.184,-70.801
1744258447.756,-104.980,-47.852,-258.301,-68.359,-177.246
1744258447.760,-66.895,-34.668,-56.152,-53.711,-8.789
1744258447.764,54.688,-17.578,187.500,-9.277,97.168
1744258447.767,19.531,-30.762,32.227,-26.367,-6.348
1744258447.771,-63.477,-45.898,-261.719,-68.359,-123.047
1744258447.775,-39.551,-35.645,-170.898,-44.434,-104.492
1744258447.779,47.363,-12.207,180.664,8.789,-84.473
1744258447.783,65.430,-13.672,158.203,2.930,-76.172
1744258447.787,-56.152,-42.480,-206.543,-54.199,-138.184
1744258447.791,-60.547,-44.434,-245.605,-26.855,-208.496
1744258447.795,30.762,-20.996,90.820,20.508,-63.477
1744258447.799,57.129,-20.508,182.617,-4.395,-16.113
1744258447.803,-37.598,-41.992,-120.117,-42.969,-118.652
1744258447.807,-106.445,-45.898,-259.277,-68.359,-69.336
1744258447.810,-26.855,-25.879,24.414,-20.996,9.766
1744258447.814,54.688,-15.137,220.703,-0.977,14.648
1744258447.818,-16.602,-34.668,-9.766,-45.898,-48.340
1744258447.822,-105.957,-52.734,-268.555,-58.105,-90.332
1744258447.826,-32.227,-31.738,-78.613,-27.832,38.574
1744258447.830,74.707,-14.648,220.703,-5.859,52.734
1744258447.834,17.090,-29.297,84.473,-17.578,-86.426
1744258447.838,-98.633,-46.387,-252.930,-65.918,-139.648
1744258447.842,-78.125,-43.945,-204.102,-65.918,-93.262
1744258447.846,25.391,-23.438,150.391,-15.137,48.828
1744258447.849,30.762,-22.461,167.480,-15.137,28.320
1744258447.853,-67.871,-49.805,-187.988,-69.824,-128.906
1744258447.857,-117.676,-55.664,-256.348,-80.078,-71.777
1744258447.861,-35.156,-30.273,77.637,-33.203,-14.648
1744258447.865,43.945,-21.484,202.148,-4.395,-53.223
1744258447.869,-51.758,-38.574,-86.914,-38.574,-133.789
1744258447.873,-103.516,-44.434,-255.859,-59.570,-168.945
1744258447.877,-17.578,-36.621,-20.020,-29.785,-69.824
1744258447.881,27.832,-29.785,205.566,-16.113,-13.184
1744258447.885,-15.625,-46.875,-12.207,-38.574,-143.066
1744258447.889,-108.398,-55.664,-300.293,-75.195,-183.105
1744258447.892,-85.449,-41.016,-151.367,-53.711,-36.621
1744258447.896,36.621,-20.020,171.387,6.348,-12.695
1744258447.900,17.090,-22.461,101.074,-6.836,-119.629
1744258447.904,-99.609,-44.434,-235.352,-68.848,-166.016
1744258447.908,-81.543,-37.109,-227.051,-79.102,-43.457
1744258447.912,21.484,-8.301,122.070,-27.832,78.613
1744258447.916,6.836,-14.648,165.039,-7.812,136.230
1744258447.920,-86.914,-44.434,-163.574,-52.734,76.172
1744258447.924,-109.863,-42.480,-264.160,-62.988,-35.156
1744258447.928,-4.395,-20.508,47.363,-28.809,29.785
1744258447.932,56.152,-13.184,192.383,-13.672,71.289
1744258447.935,-33.691,-24.414,-76.660,-49.805,7.324
1744258447.939,-133.789,-40.039,-274.414,-64.453,-65.918
1744258447.943,-69.336,-29.785,-49.805,-28.809,6.348
1744258447.947,35.645,-20.996,190.918,-11.719,77.148
1744258447.951,-10.742,-29.297,17.090,-49.316,-59.570
1744258447.955,-116.211,-42.480,-281.250,-87.891,-146.484
1744258447.959,-109.375,-37.598,-167.480,-66.895,19.043
1744258447.963,-5.859,-20.508,161.621,-13.672,44.434
1744258447.967,10.254,-24.902,113.770,-21.973,-125.000
1744258447.971,-117.676,-41.992,-214.355,-70.801,-141.113
1744258447.975,-127.441,-48.340,-237.305,-65.430,29.297
1744258447.978,2.930,-35.156,88.379,-25.879,53.711
1744258447.982,2.441,-38.574,162.109,-22.949,38.086
1744258447.986,-85.449,-56.641,-152.344,-75.684,20.996
1744258447.990,-114.258,-47.363,-269.531,-81.543,-21.484
1744258447.994,-22.949,-27.344,33.691,-26.855,43.457
1744258447.998,29.297,-22.949,209.473,-18.555,59.082
1744258448.002,-45.410,-41.504,-50.293,-52.246,-55.176
1744258448.006,-104.980,-53.711,-287.109,-76.660,-91.309
1744258448.010,-56.641,-33.203,-82.031,-42.969,-8.301
1744258448.014,30.762,-14.648,209.473,-2.930,38.086
1744258448.018,-1.465,-31.250,55.176,-32.715,-30.273
1744258448.021,-102.539,-45.898,-254.883,-72.754,-85.938
1744258448.025,-98.633,-39.551,-187.500,-51.758,10.742
1744258448.029,11.230,-25.391,139.648,-9.766,42.480
1744258448.033,15.137,-20.508,150.391,-8.301,-58.105
1744258448.037,-93.750,-38.086,-178.223,-38.086,-90.820
1744258448.041,-112.305,-44.922,-238.770,-60.059,-34.180
1744258448.045,-12.695,-24.414,87.402,-37.109,0.000
1744258448.049,44.922,-16.113,189.941,0.488,-13.184
1744258448.053,-64.453,-32.227,-109.375,-31.738,-43.945
1744258448.057,-120.117,-38.574,-256.836,-71.289,3.418
1744258448.060,-14.648,-16.602,10.254,-31.738,36.621
1744258448.064,44.922,-12.207,214.355,-4.883,-9.766
1744258448.068,-38.574,-32.715,-4.395,-38.086,23.438
1744258448.072,-97.656,-50.781,-285.156,-61.523,8.789
1744258448.076,-57.129,-37.109,-120.605,-40.039,1.953
1744258448.080,20.508,-17.578,187.500,5.371,61.035
1744258448.084,-7.324,-28.809,84.473,-11.719,-22.949
1744258448.088,-92.285,-42.969,-239.258,-63.965,-101.562
1744258448.092,-92.285,-36.621,-208.984,-60.059,2.930
1744258448.096,9.766,-20.508,122.559,-5.371,81.055
1744258448.100,29.297,-20.996,145.996,-16.113,62.988
1744258448.103,-71.289,-38.086,-181.152,-55.664,-1.953
1744258448.107,-109.375,-36.133,-240.723,-53.223,-82.520
1744258448.111,-7.324,-18.555,78.613,-33.691,34.180
1744258448.115,29.297,-15.137,208.496,-13.672,74.707
1744258448.119,-55.176,-41.016,-96.191,-41.016,-135.742
1744258448.123,-90.332,-46.387,-285.156,-60.547,-118.164
1744258448.127,-31.738,-26.855,-20.996,0.000,-2.441
1744258448.131,53.223,-20.996,220.215,33.203,5.371
1744258448.135,18.555,-36.621,8.301,-29.785,-50.781
1744258448.139,-96.680,-52.246,-279.297,-75.684,-121.582
1744258448.143,-72.754,-41.016,-143.555,-42.969,-102.051
1744258448.146,32.227,-18.555,179.688,-3.906,-62.988
1744258448.150,18.066,-26.367,110.840,-19.043,-108.398
1744258448.154,-93.750,-48.828,-220.215,-59.082,-39.062
1744258448.158,-113.281,-47.363,-197.266,-52.734,44.434
1744258448.162,-1.465,-31.738,127.930,-15.625,90.332
1744258448.166,34.668,-28.320,153.320,-11.719,3.418
1744258448.170,-66.895,-40.039,-159.180,-50.781,-18.555
1744258448.174,-106.934,-44.922,-248.535,-52.246,1.465
1744258448.178,-11.230,-27.832,42.969,-14.160,22.949
1744258448.182,28.809,-18.066,189.453,-6.348,-13.672
1744258448.186,-41.016,-30.762,-75.684,-36.621,-120.117
1744258448.189,-102.539,-41.016,-286.133,-53.223,-66.406
1744258448.193,-54.199,-27.344,-59.570,-16.602,30.762
1744258448.197,39.551,-13.672,199.219,-1.953,20.996
1744258448.201,-11.719,-24.414,35.156,-48.340,-104.980
1744258448.205,-127.930,-44.434,-267.090,-86.914,-144.043
1744258448.209,-97.656,-35.156,-171.387,-55.176,-99.609
1744258448.213,14.160,-15.625,154.297,-12.695,-110.352
1744258448.217,1.953,-28.320,115.234,-30.273,-105.957
1744258448.221,-106.934,-43.457,-212.891,-65.430,-62.988
1744258448.225,-83.496,-32.715,-219.727,-60.059,-33.203
1744258448.228,25.391,-17.578,97.168,-33.691,-73.730
1744258448.232,39.062,-20.508,170.410,-17.578,-76.172
1744258448.236,-48.828,-36.621,-134.277,-38.574,-59.570
1744258448.240,-110.352,-42.480,-276.367,-60.547,-25.879
1744258448.244,-36.621,-27.344,8.301,-32.715,65.430
1744258448.248,54.688,-12.207,205.078,-8.789,51.758
1744258448.252,-23.926,-26.855,-31.250,-43.457,-120.605
1744258448.256,-108.398,-47.363,-277.832,-65.430,-185.059
1744258448.260,-68.848,-32.227,-90.820,-24.902,-60.547
1744258448.264,24.902,-11.230,191.895,-16.113,-2.930
1744258448.267,-3.418,-23.438,53.711,-41.016,-110.840
1744258448.271,-135.254,-43.457,-254.883,-69.824,-205.566
1744258448.275,-113.281,-41.992,-191.406,-65.918,-118.652
1744258448.279,1.953,-24.902,145.996,-32.227,-29.297
1744258448.283,14.648,-26.855,142.578,-31.738,-73.730
1744258448.287,-96.680,-50.781,-196.289,-68.359,-82.031
1744258448.291,-105.957,-41.504,-236.328,-56.152,-64.453
1744258448.295,8.789,-13.672,107.422,-6.836,-17.090
1744258448.299,44.434,-16.602,198.242,-8.789,39.551
1744258448.303,-34.180,-38.574,-108.887,-65.430,-35.645
1744258448.307,-115.234,-53.223,-274.414,-79.590,-38.086
1744258448.310,-48.828,-37.109,-20.996,-29.785,23.438
1744258448.314,33.691,-20.508,205.566,-3.418,-20.508
1744258448.318,-46.875,-34.668,1.465,-41.504,-86.914
1744258448.322,-115.234,-48.340,-279.785,-61.523,-107.422
1744258448.326,-51.270,-36.133,-123.535,-37.598,-18.555
1744258448.330,41.016,-22.461,181.152,-12.695,-3.906
1744258448.334,21.484,-26.367,85.938,-24.902,8.789
1744258448.338,-100.586,-41.992,-231.934,-62.500,3.906
1744258448.342,-102.051,-35.156,-179.199,-56.152,-14.160
1744258448.346,29.785,-14.648,157.227,-14.648,-49.805
1744258448.350,29.785,-27.832,148.926,-2.930,-112.793
1744258448.353,-77.637,-53.711,-173.828,-52.734,-50.781
1744258448.357,-101.074,-51.758,-248.047,-68.848,-10.742
1744258448.361,-15.137,-35.645,60.547,-20.996,83.496
1744258448.365,28.320,-23.926,201.172,-13.184,110.840
1744258448.369,-79.590,-36.621,-86.426,-49.316,-83.008
1744258448.373,-103.516,-47.363,-276.367,-62.988,-118.164
1744258448.377,-20.020,-32.227,-42.480,-29.785,-17.578
1744258448.381,55.176,-16.602,207.520,-1.953,-37.598
1744258448.385,16.602,-27.832,29.785,-27.832,-63.965
1744258448.389,-104.980,-43.945,-254.883,-64.453,-37.598
1744258448.393,-73.242,-37.109,-128.906,-47.363,-7.324
1744258448.396,48.340,-20.020,196.289,-11.230,55.664
1744258448.400,10.254,-30.762,114.258,-26.367,51.270
1744258448.404,-92.285,-54.688,-233.398,-52.246,24.414
1744258448.408,-65.430,-44.434,-213.379,-48.828,74.219
1744258448.412,12.207,-19.531,135.742,-25.391,94.727
1744258448.416,30.273,-22.949,181.152,1.953,-8.789
1744258448.420,-35.156,-49.805,-157.715,-43.457,-101.562
1744258448.424,-76.660,-52.246,-273.438,-63.477,-77.148
1744258448.428,-6.348,-27.344,40.527,-11.230,-27.832
1744258448.432,52.246,-15.137,220.703,6.836,-58.594
1744258448.436,-17.090,-28.809,-36.133,-34.180,-124.023
1744258448.439,-99.609,-48.340,-258.789,-67.383,-29.785
1744258448.443,-50.293,-39.062,-45.410,-39.551,11.719
1744258448.447,27.344,-30.273,208.984,-5.371,-70.801
1744258448.451,-5.859,-41.504,48.828,-23.438,-98.145
1744258448.455,-108.398,-57.617,-259.766,-58.105,-99.609
1744258448.459,-94.727,-53.223,-166.992,-61.035,-107.910
1744258448.463,11.719,-30.762,170.410,-22.461,-84.473
1744258448.467,22.949,-30.762,133.301,-20.020,-95.703
1744258448.471,-86.426,-50.293,-213.867,-64.941,-128.906
1744258448.475,-95.215,-41.992,-217.285,-71.289,-137.695
1744258448.478,5.859,-23.438,112.793,-29.297,-60.059
1744258448.482,31.738,-28.809,183.594,-15.625,-84.961
1744258448.486,-55.664,-46.387,-126.953,-38.086,-71.289
1744258448.490,-109.863,-55.664,-269.043,-60.059,-19.531
1744258448.494,-20.020,-41.016,18.066,-9.277,-23.926
1744258448.498,40.039,-27.344,203.613,37.109,-25.879
1744258448.502,-38.086,-40.039,-38.086,-48.340,-93.750
1744258448.506,-101.562,-48.828,-264.160,-91.797,-125.000
1744258448.510,-51.758,-37.109,-85.449,-47.852,-32.715
1744258448.514,42.969,-26.855,190.918,-12.207,53.711
1744258448.518,15.137,-37.598,62.012,-22.949,-35.645
1744258448.521,-124.023,-47.852,-244.629,-72.754,-17.578
1744258448.525,-100.586,-36.133,-178.711,-60.059,45.410
1744258448.529,35.645,-15.137,166.992,5.859,-37.109
1744258448.533,30.273,-21.973,175.293,-9.766,-52.734
1744258448.537,-86.914,-52.734,-173.340,-64.453,-48.340
1744258448.541,-94.727,-57.129,-255.371,-60.059,-64.453
1744258448.545,2.441,-34.180,68.848,-17.090,-70.312
1744258448.549,52.734,-23.438,185.547,-2.930,-65.918
1744258448.553,-24.902,-39.062,-112.793,-51.758,-65.918
1744258448.557,-96.191,-46.875,-273.438,-60.059,-28.320
1744258448.561,-28.809,-31.738,-0.977,-12.207,-13.672
1744258448.564,35.645,-21.484,214.844,-3.906,-3.906
1744258448.568,-25.879,-31.250,-8.301,-44.434,5.371
1744258448.572,-117.676,-46.387,-265.625,-75.684,-98.633
1744258448.576,-86.914,-36.133,-92.773,-47.852,-98.145
1744258448.580,15.137,-18.066,208.008,-6.836,-3.418
1744258448.584,9.277,-29.785,89.355,-23.438,-61.523
1744258448.588,-100.586,-47.852,-256.348,-67.871,-88.379
1744258448.592,-109.863,-40.527,-206.055,-57.129,-2.930
1744258448.596,-3.906,-22.949,153.320,-11.230,40.039
1744258448.600,27.344,-26.855,158.691,-18.555,1.465
1744258448.603,-65.430,-45.410,-194.336,-54.688,-85.449
1744258448.607,-92.285,-44.434,-271.973,-62.500,-47.363
1744258448.611,1.953,-25.391,54.688,-27.344,35.156
1744258448.615,44.922,-21.973,196.289,-10.254,-11.230
1744258448.619,-50.293,-36.133,-84.473,-42.480,-104.980
1744258448.623,-105.957,-39.551,-258.301,-62.012,-47.363
1744258448.627,-42.969,-27.832,-15.625,-26.367,51.758
1744258448.631,44.922,-23.926,196.777,-3.906,15.625
1744258448.635,3.418,-38.086,-1.465,-32.227,-5.859
1744258448.639,-111.816,-47.852,-277.344,-55.176,19.531
1744258448.643,-89.355,-32.715,-136.719,-30.762,44.922
1744258448.646,35.156,-17.578,183.594,-8.301,24.414
1744258448.650,40.039,-29.785,127.930,-21.973,-79.590
1744258448.654,-85.938,-51.758,-203.125,-59.082,-105.469
1744258448.658,-118.164,-48.828,-223.633,-55.664,-0.488
1744258448.662,10.254,-19.043,116.211,-1.465,55.176
1744258448.666,38.574,-16.113,180.664,8.301,22.949
1744258448.670,-68.359,-35.645,-133.789,-55.176,0.977
1744258448.674,-87.891,-40.039,-260.254,-80.566,-89.355
1744258448.678,2.441,-22.949,41.016,-22.949,-23.926
1744258448.682,56.641,-16.113,205.078,-9.766,-35.156
1744258448.685,-7.812,-32.715,-65.918,-47.363,-129.883
1744258448.689,-91.309,-43.457,-270.020,-58.594,-17.578
1744258448.693,-30.762,-27.344,-53.711,-30.762,15.625
1744258448.697,48.340,-19.043,202.148,12.695,15.625
1744258448.701,-7.812,-36.133,39.062,-11.719,9.766
1744258448.705,-104.004,-55.664,-273.926,-67.871,-36.133
1744258448.709,-85.449,-43.945,-164.062,-46.387,-10.742
1744258448.713,19.043,-19.531,184.082,1.465,-12.695
1744258448.717,23.438,-21.484,150.391,-2.930,-51.758
1744258448.721,-87.402,-43.457,-194.824,-50.293,-66.406
1744258448.725,-114.258,-49.316,-244.141,-72.754,-40.527
1744258448.728,-6.836,-32.227,79.590,-33.203,-16.602
1744258448.732,31.738,-29.297,174.805,-6.348,-7.324
1744258448.736,-66.895,-48.828,-134.277,-55.176,-60.059
1744258448.740,-116.211,-47.852,-270.508,-83.984,-65.918
1744258448.744,-39.551,-24.414,21.484,-34.180,2.930
1744258448.748,22.461,-17.090,220.215,6.836,-63.477
1744258448.752,-28.809,-40.527,-28.809,-23.926,-106.445
1744258448.756,-105.469,-51.758,-278.809,-53.711,-30.762
1744258448.760,-62.012,-29.785,-82.520,-29.297,-22.461
1744258448.764,37.109,-11.719,227.051,11.230,-62.500
1744258448.768,3.906,-22.949,97.168,12.207,-104.980
1744258448.771,-104.004,-41.992,-230.469,-31.738,-164.551
1744258448.775,-90.332,-40.527,-185.547,-61.035,-99.609
1744258448.779,22.949,-20.996,142.578,-22.949,-21.484
1744258448.783,34.668,-20.020,151.367,-1.953,-50.781
1744258448.787,-69.824,-34.180,-177.734,-43.945,-82.031
1744258448.791,-100.586,-35.156,-246.582,-52.246,-55.176
1744258448.795,-3.418,-24.414,73.242,-17.578,37.109
1744258448.799,41.992,-23.926,187.988,0.488,5.371
1744258448.803,-46.387,-36.621,-98.145,-34.668,-113.281
1744258448.807,-100.098,-41.992,-267.578,-60.059,-99.609
1744258448.811,-25.391,-27.832,0.977,-23.926,7.324
1744258448.814,43.457,-9.277,237.793,-1.953,-6.348
1744258448.818,-13.672,-24.414,8.789,-45.410,-64.453
1744258448.822,-95.703,-45.410,-290.527,-76.660,-27.344
1744258448.826,-68.848,-38.574,-143.555,-48.340,-48.828
1744258448.830,31.250,-20.020,173.828,-17.090,-23.926
1744258448.834,18.066,-20.020,101.074,-17.090,-51.270
1744258448.838,-99.121,-43.945,-234.375,-57.129,-23.438
1744258448.842,-100.098,-41.504,-216.797,-79.102,5.371
1744258448.846,17.578,-18.066,124.023,-33.203,-9.277
1744258448.850,49.316,-14.160,168.457,-7.324,38.086
1744258448.853,-56.152,-34.180,-156.250,-45.410,-41.504
1744258448.857,-96.191,-35.156,-238.281,-66.406,-87.891
1744258448.861,-6.348,-19.531,75.684,-17.090,14.648
1744258448.865,42.480,-18.555,208.496,8.301,9.277
1744258448.869,-38.574,-39.551,-79.102,-33.691,-123.535
1744258448.873,-101.074,-53.223,-280.762,-74.219,-106.934
1744258448.877,-32.715,-31.738,-44.434,-45.410,-27.832
1744258448.881,68.359,-5.859,224.609,-2.930,-62.500
1744258448.885,31.738,-20.020,43.945,-21.973,-99.121
1744258448.889,-84.473,-36.621,-256.348,-53.711,-110.352
1744258448.893,-61.035,-25.391,-125.488,-46.387,-73.730
1744258448.896,50.293,-14.648,183.594,-6.348,-19.043
1744258448.900,42.969,-21.484,125.488,1.465,-54.688
1744258448.904,-64.453,-41.992,-200.684,-50.781,-35.156
1744258448.908,-76.172,-44.434,-217.773,-55.664,38.086
1744258448.912,16.602,-27.344,111.328,-23.438,29.785
1744258448.916,35.156,-25.879,177.734,-33.691,-57.129
1744258448.920,-58.105,-44.922,-148.438,-57.617,-75.684
1744258448.924,-106.445,-51.270,-278.809,-63.477,-70.801
1744258448.928,-13.184,-32.227,31.250,-28.320,-28.320
1744258448.932,61.523,-20.020,213.867,0.000,35.156
1744258448.936,-21.484,-33.691,-45.410,-32.715,-48.340
1744258448.939,-99.609,-46.875,-278.809,-70.801,-35.156
1744258448.943,-32.715,-36.133,-64.941,-36.621,68.848
1744258448.947,51.758,-23.438,211.426,2.441,96.680
1744258448.951,18.555,-30.273,67.871,-20.508,-21.973
1744258448.955,-96.191,-51.758,-241.211,-51.758,-111.328
1744258448.959,-94.727,-44.922,-161.133,-47.852,-19.043
1744258448.963,21.484,-25.391,153.320,-16.602,79.102
1744258448.967,29.297,-29.785,123.535,-14.160,-18.555
1744258448.971,-73.730,-44.434,-192.871,-50.293,-85.938
1744258448.975,-88.867,-43.457,-227.539,-43.945,-108.887
1744258448.979,21.484,-24.902,91.797,1.465,-102.539
1744258448.982,69.824,-16.602,188.965,8.301,-14.160
1744258448.986,-23.438,-35.156,-120.605,-41.016,-55.664
1744258448.990,-73.242,-39.551,-271.484,-60.547,7.324
1744258448.994,5.859,-19.043,7.324,-10.742,60.059
1744258448.998,65.430,-6.836,221.680,15.625,23.438
1744258449.002,-15.137,-30.273,-6.836,-20.020,-4.883
1744258449.006,-110.352,-53.223,-277.832,-35.645,-36.621
1744258449.010,-55.664,-37.109,-106.934,-6.348,-11.719
1744258449.014,37.598,-19.531,194.336,-6.348,-42.480
1744258449.018,13.184,-31.738,69.824,-24.902,-119.141
1744258449.021,-87.891,-50.293,-256.348,-56.641,-125.488
1744258449.025,-90.820,-41.504,-201.660,-53.223,-109.375
1744258449.029,20.996,-17.578,135.742,-12.695,-42.969
1744258449.033,33.691,-18.066,135.742,-15.137,10.742
1744258449.037,-77.637,-34.668,-194.824,-63.477,-43.457
1744258449.041,-110.840,-35.156,-249.512,-67.871,-17.090
1744258449.045,1.953,-11.230,85.938,-13.184,44.434
1744258449.049,60.059,-6.348,206.543,3.418,-5.371
1744258449.053,-30.273,-26.367,-94.727,-24.414,-61.523
1744258449.057,-105.469,-39.062,-280.762,-42.480,-40.039
1744258449.061,-34.668,-31.250,-30.273,-32.227,4.883
1744258449.064,61.523,-17.090,204.102,-7.812,3.418
1744258449.068,35.156,-14.160,18.555,-33.203,-39.062
1744258449.072,-72.266,-30.762,-266.113,-76.660,-90.820
1744258449.076,-54.688,-30.762,-135.742,-46.387,-12.695
1744258449.080,69.336,-9.277,175.293,18.555,2.441
1744258449.084,60.547,-5.371,105.957,1.953,-36.133
1744258449.088,-67.871,-22.949,-217.773,-54.688,-60.547
1744258449.092,-68.359,-20.508,-192.871,-60.059,-28.809
1744258449.096,31.738,-2.441,133.301,-30.762,118.652
1744258449.100,51.758,-6.348,169.434,-27.344,65.430
1744258449.103,-61.035,-25.391,-164.551,-69.336,-16.602
1744258449.107,-107.422,-31.250,-270.508,-95.215,3.418
1744258449.111,12.207,-7.812,41.016,-58.105,2.441
1744258449.115,59.570,0.000,205.078,-34.668,-17.090
1744258449.119,-81.055,-25.391,-66.895,-75.684,-59.570
1744258449.123,-178.711,-35.156,-283.691,-91.797,-36.621
1744258449.127,-101.074,-21.484,-65.918,-87.402,-7.324
1744258449.131,7.812,-3.906,208.008,-56.152,-78.613
1744258449.135,-44.434,-7.812,40.527,-77.637,-160.156
1744258449.139,-175.781,-26.367,-260.254,-158.203,-151.367
1744258449.143,-154.785,-23.926,-152.344,-147.461,-106.445
1744258449.146,-41.504,-7.324,177.734,-81.543,-55.176
1744258449.150,-39.062,-11.230,132.812,-93.262,-31.250
1744258449.154,-152.832,-32.227,-217.285,-145.508,-78.613
1744258449.158,-174.805,-34.180,-222.168,-140.137,-69.824
1744258449.162,-58.105,-15.625,132.324,-86.914,32.227
1744258449.166,-0.977,-11.230,188.477,-60.059,30.762
1744258449.170,-99.609,-29.785,-132.324,-90.332,28.809
1744258449.174,-158.691,-32.715,-258.301,-104.004,-10.254
1744258449.178,-64.453,-15.137,36.133,-74.219,5.371
1744258449.182,12.695,-11.230,218.262,-39.551,48.828
1744258449.186,-44.434,-26.367,-27.344,-67.871,4.395
1744258449.189,-122.070,-35.156,-257.324,-100.098,-93.262
1744258449.193,-65.918,-23.438,-58.594,-58.105,-12.695
1744258449.197,27.344,-19.043,209.473,-8.301,88.867
1744258449.201,-0.977,-38.086,54.199,-20.020,21.484
1744258449.205,-110.840,-58.105,-264.648,-63.477,7.812
1744258449.209,-94.727,-45.410,-177.734,-56.641,25.879
1744258449.213,28.809,-21.973,167.480,-8.789,39.062
1744258449.217,27.832,-28.809,155.273,3.418,6.836
1744258449.221,-71.777,-47.363,-183.105,-29.785,-27.344
1744258449.225,-91.797,-45.410,-224.121,-40.039,39.062
1744258449.229,9.277,-24.414,115.234,2.441,37.109
1744258449.232,70.312,-20.508,217.285,20.996,-37.109
1744258449.236,-17.090,-40.039,-101.074,0.977,-45.898
1744258449.240,-79.590,-51.270,-256.836,-24.414,-43.457
1744258449.244,-4.883,-38.086,9.766,-11.230,-6.836
1744258449.248,62.500,-21.484,223.145,23.438,-3.418
1744258449.252,10.742,-29.297,16.602,11.230,-112.305
1744258449.256,-74.219,-48.340,-266.113,-34.180,-44.922
1744258449.260,-37.598,-46.875,-119.141,-15.625,85.449
1744258449.264,61.523,-26.855,188.477,38.574,63.477
1744258449.268,35.645,-33.203,83.984,8.301,29.785
1744258449.271,-74.219,-53.711,-237.305,-31.738,-17.090
1744258449.275,-68.359,-47.852,-188.965,-16.113,-21.973
1744258449.279,49.805,-27.344,166.016,15.625,-27.832
1744258449.283,74.707,-29.785,183.105,24.414,-55.176
1744258449.287,-32.715,-49.805,-174.805,-21.973,-41.016
1744258449.291,-72.266,-53.223,-263.672,-37.109,-57.617
1744258449.295,37.598,-27.344,69.824,24.902,-9.277
1744258449.299,87.402,-18.555,218.750,32.227,-31.250
1744258449.303,-12.695,-41.016,-83.008,-14.648,-100.098
1744258449.307,-94.238,-55.664,-270.508,-41.992,-83.496
1744258449.311,-33.691,-39.062,-9.766,-0.977,-63.965
1744258449.314,58.594,-23.926,205.566,26.367,-27.832
1744258449.318,3.906,-38.086,4.883,-13.184,-41.016
1744258449.322,-106.934,-57.129,-268.066,-35.645,-62.500
1744258449.326,-72.754,-41.504,-118.652,-21.484,-17.090
1744258449.330,38.574,-23.438,202.148,17.578,32.227
1744258449.334,29.297,-35.645,117.676,6.836,-103.027
1744258449.338,-82.031,-54.688,-236.328,-43.945,-163.574
1744258449.342,-101.562,-51.270,-225.098,-36.621,-48.340
1744258449.346,20.020,-31.250,136.230,17.578,13.672
1744258449.350,58.105,-31.738,186.523,41.504,-26.367
1744258449.354,-48.340,-55.664,-160.645,-1.953,-51.270
1744258449.357,-91.797,-59.570,-264.160,-16.602,-24.414
1744258449.361,3.418,-38.086,46.387,16.113,5.859
1744258449.365,66.406,-21.973,218.750,36.621,-36.133
1744258449.369,-14.160,-33.203,-31.738,14.160,-108.398
1744258449.373,-110.352,-51.270,-247.559,-27.832,-131.348
1744258449.377,-46.387,-41.016,-27.832,-10.254,-80.566
1744258449.381,59.570,-33.203,215.332,31.250,-52.734
1744258449.385,10.742,-43.457,37.109,-1.953,-90.820
1744258449.389,-92.773,-53.711,-261.230,-45.898,-132.812
1744258449.393,-69.336,-46.387,-162.109,-19.043,-72.754
1744258449.396,40.527,-22.949,183.105,20.996,-26.855
1744258449.400,31.250,-27.832,161.621,14.160,-84.961
1744258449.404,-83.008,-50.293,-193.359,-30.762,-101.562
1744258449.408,-101.562,-48.828,-224.121,-31.250,-68.359
1744258449.412,9.277,-28.320,121.582,32.715,-5.859
1744258449.416,47.852,-29.297,204.102,22.461,-3.906
1744258449.420,-47.363,-44.434,-109.375,-43.457,-36.133
1744258449.424,-120.117,-49.805,-251.953,-44.434,33.203
1744258449.428,-40.039,-39.062,39.551,-3.906,53.223
1744258449.432,39.062,-28.809,216.797,20.996,52.734
1744258449.436,-29.297,-36.621,-41.992,-18.066,-36.621
1744258449.439,-105.957,-45.898,-278.320,-59.570,-94.727
1744258449.443,-37.598,-31.250,-82.031,-23.438,19.531
1744258449.447,51.758,-18.066,194.824,10.254,41.016
1744258449.451,0.000,-33.203,60.547,-13.184,-55.176
1744258449.455,-98.633,-51.758,-261.230,-42.480,-71.777
1744258449.459,-67.383,-39.551,-192.871,-34.180,-23.438
1744258449.463,29.297,-19.043,157.715,0.000,60.059
1744258449.467,27.832,-20.020,165.527,12.207,99.609
1744258449.471,-77.637,-40.527,-182.617,-37.598,-2.930
1744258449.475,-104.980,-36.133,-232.422,-55.176,-73.242
1744258449.478,-1.953,-18.555,96.680,5.371,-27.832
1744258449.482,47.852,-19.531,189.453,6.836,-8.301
1744258449.486,-36.621,-35.645,-115.723,-38.574,-66.406
1744258449.490,-112.305,-40.039,-264.648,-56.641,-59.082
1744258449.494,-43.457,-22.461,4.395,-24.902,0.488
1744258449.498,51.758,-8.301,225.586,17.578,21.973
1744258449.502,-20.020,-27.344,9.277,-13.672,1.953
1744258449.506,-119.141,-43.945,-266.602,-60.059,-46.875
1744258449.510,-57.129,-27.344,-104.980,-35.645,-43.457
1744258449.514,48.828,-8.301,211.426,5.859,-66.895
1744258449.518,5.371,-24.902,129.883,-0.488,-132.324
1744258449.521,-113.770,-43.457,-214.355,-44.434,-111.328
1744258449.525,-102.051,-34.180,-208.984,-55.664,-74.707
1744258449.529,3.906,-20.996,133.301,-6.348,-41.992
1744258449.533,22.461,-20.020,173.828,13.184,-55.664
1744258449.537,-62.988,-34.668,-152.344,-46.387,-125.977
1744258449.541,-100.586,-44.922,-250.000,-67.383,-69.336
1744258449.545,0.977,-27.832,65.430,-0.488,9.277
1744258449.549,59.570,-16.602,209.961,39.551,-27.832
1744258449.553,-50.781,-43.945,-95.215,-32.715,-105.957
1744258449.557,-130.371,-56.152,-298.828,-68.848,-109.375
1744258449.561,-49.316,-27.832,-33.691,-16.602,-22.461
1744258449.564,58.594,-14.648,217.285,11.719,49.805
1744258449.568,0.977,-32.715,27.344,-15.625,-19.043
1744258449.572,-104.492,-48.340,-278.809,-45.410,-166.016
1744258449.576,-72.754,-36.133,-155.762,-21.484,-150.879
1744258449.580,50.781,-15.625,182.617,23.926,-44.922
1744258449.584,48.828,-23.926,114.258,9.277,-49.316
1744258449.588,-82.520,-45.410,-233.398,-47.852,-89.844
1744258449.592,-95.703,-39.062,-227.051,-47.852,-53.223
1744258449.596,4.883,-16.113,129.395,10.742,-32.227
1744258449.600,41.992,-9.277,209.473,17.090,-43.457
1744258449.604,-55.664,-35.645,-136.719,-43.945,-115.234
1744258449.607,-108.398,-46.387,-252.441,-42.480,-56.152
1744258449.611,-11.230,-25.879,63.477,-2.930,35.645
1744258449.615,40.527,-22.949,225.098,15.625,15.625
1744258449.619,-50.781,-49.316,-66.406,-8.301,-77.148
1744258449.623,-112.305,-51.270,-308.105,-54.199,-151.855
1744258449.627,-40.527,-24.902,-69.336,-37.598,-99.609
1744258449.631,58.105,-9.766,217.773,4.883,-70.801
1744258449.635,17.578,-20.996,41.504,-9.277,-163.574
1744258449.639,-104.004,-38.086,-274.414,-48.340,-100.098
1744258449.643,-101.074,-39.062,-178.223,-41.016,69.336
1744258449.647,15.625,-18.555,174.316,2.441,71.289
1744258449.650,46.387,-17.578,149.414,-1.465,-23.438
1744258449.654,-64.453,-34.180,-193.848,-46.387,-33.691
1744258449.658,-102.051,-27.832,-229.004,-55.664,-0.977
1744258449.662,-5.371,-14.648,103.516,-11.230,8.789
1744258449.666,36.621,-13.184,199.707,0.977,-24.902
1744258449.670,-45.898,-26.855,-125.488,-45.410,-55.176
1744258449.674,-120.605,-39.551,-285.156,-46.387,-55.176
1744258449.678,-44.922,-21.973,13.184,-12.695,38.574
1744258449.682,47.852,-4.395,212.402,-1.465,53.711
1744258449.686,-17.578,-16.602,-35.156,-27.344,27.832
1744258449.689,-113.281,-37.109,-284.668,-52.734,-9.277
1744258449.693,-38.574,-20.996,-88.867,-27.344,54.688
1744258449.697,60.547,4.883,211.914,5.371,59.082
1744258449.701,25.879,-4.395,87.402,-10.742,-67.871
1744258449.705,-72.754,-29.297,-246.094,-59.570,-128.906
1744258449.709,-75.684,-30.762,-191.406,-52.734,-148.926
1744258449.713,15.625,-16.602,147.461,-5.371,-64.453
1744258449.717,34.668,-14.648,138.672,-2.930,18.066
1744258449.721,-60.547,-32.715,-207.520,-43.945,-5.859
1744258449.725,-112.305,-42.480,-247.559,-38.574,33.203
1744258449.729,-12.695,-21.484,82.031,2.441,108.887
1744258449.732,43.457,-17.578,180.176,20.508,96.680
1744258449.736,-47.852,-39.062,-131.836,-29.297,24.902
1744258449.740,-111.328,-43.945,-303.223,-61.523,13.184
1744258449.744,-29.785,-24.414,-23.438,-8.301,58.594
1744258449.748,52.734,-6.348,232.422,15.137,14.648
1744258449.752,-0.488,-28.809,19.043,-12.695,-27.832
1744258449.756,-101.074,-56.152,-290.527,-31.738,-100.098
1744258449.760,-87.891,-43.945,-145.020,-21.484,-67.871
1744258449.764,20.996,-21.973,169.434,-0.977,60.547
1744258449.768,13.672,-28.320,66.406,-24.414,-22.949
1744258449.771,-107.910,-43.457,-265.625,-80.566,-49.316
1744258449.775,-106.934,-37.598,-220.215,-71.289,44.922
1744258449.779,12.207,-26.855,126.953,-14.160,32.715
1744258449.783,19.043,-32.715,162.598,-9.766,-6.836
1744258449.787,-91.797,-43.457,-162.109,-62.012,-47.363
1744258449.791,-131.836,-44.434,-259.766,-73.242,-87.891
1744258449.795,-30.762,-28.320,72.754,-26.367,69.824
1744258449.799,35.645,-24.902,214.844,-9.766,113.281
1744258449.803,-46.387,-42.969,-86.426,-40.527,20.020
1744258449.807,-116.699,-54.199,-289.062,-64.941,45.410
1744258449.811,-54.199,-42.480,-30.762,-29.297,70.312
1744258449.814,20.020,-34.668,235.840,18.555,31.250
1744258449.818,-20.508,-48.828,49.316,-18.066,-50.781
1744258449.822,-108.887,-61.523,-273.926,-83.008,-47.852
1744258449.826,-71.289,-49.316,-160.645,-72.266,-48.828
1744258449.830,35.645,-30.762,175.781,-16.602,-6.348
1744258449.834,-4.395,-34.180,122.559,-6.836,8.789
1744258449.838,-99.609,-45.898,-222.168,-34.180,-70.312
1744258449.842,-125.000,-41.992,-212.402,-55.664,29.297
1744258449.846,-27.832,-29.297,140.137,-10.254,-2.441
1744258449.850,15.625,-28.320,196.289,-2.441,-121.582
1744258449.854,-95.215,-50.293,-155.273,-65.918,-134.766
1744258449.857,-145.508,-66.406,-276.855,-78.125,-75.195
1744258449.861,-41.504,-44.434,29.785,-30.273,19.531
1744258449.865,39.551,-25.879,191.895,-13.672,40.527
1744258449.869,-4.395,-43.457,-70.801,-54.688,-89.355
1744258449.873,-85.938,-52.246,-296.875,-80.566,-151.367
1744258449.877,-75.684,-40.039,-77.637,-29.297,-77.637
1744258449.881,12.207,-28.809,205.078,-0.977,-19.043
1744258449.885,7.812,-30.762,42.969,-36.133,-118.652
1744258449.889,-102.539,-37.598,-258.301,-57.129,-182.129
1744258449.893,-96.191,-38.574,-157.227,-33.691,-48.340
1744258449.897,27.832,-21.484,162.598,-6.836,18.555
1744258449.900,17.578,-25.879,122.559,-11.230,-46.875
1744258449.904,-87.402,-48.340,-217.773,-47.852,-92.773
1744258449.908,-111.816,-40.527,-238.770,-64.453,-36.621
1744258449.912,-33.691,-27.832,113.281,-13.184,-41.504
1744258449.916,2.441,-30.762,198.730,5.371,-67.383
1744258449.920,-85.938,-48.340,-131.836,-56.152,-58.105
1744258449.924,-129.883,-54.199,-277.832,-71.289,-73.242
1744258449.928,-48.340,-32.715,22.949,-13.184,-54.688
1744258449.932,27.832,-23.438,235.352,12.207,-40.527
1744258449.936,-26.367,-39.551,-2.441,-27.344,-90.820
1744258449.939,-106.445,-53.223,-266.602,-61.035,-131.348
1744258449.943,-65.430,-38.574,-85.449,-42.480,-57.617
1744258449.947,29.297,-26.367,199.707,-11.719,6.348
1744258449.951,3.906,-32.227,80.078,-35.645,-104.004
1744258449.955,-117.676,-45.410,-242.188,-80.078,-159.180
1744258449.959,-111.328,-41.504,-192.383,-70.312,-27.832
1744258449.963,12.695,-21.484,156.250,-12.695,26.855
1744258449.967,19.531,-22.461,172.363,-0.977,6.348
1744258449.971,-98.633,-51.758,-189.453,-54.199,15.625
1744258449.975,-104.004,-46.875,-259.277,-66.406,16.113
1744258449.979,-0.977,-14.648,84.961,-22.461,20.996
1744258449.982,45.898,-12.695,213.379,-8.789,33.203
1744258449.986,-42.480,-41.504,-93.750,-38.086,19.043
1744258449.990,-148.926,-57.129,-276.855,-65.430,3.906
1744258449.994,-79.102,-40.527,-14.160,-39.062,-18.555
1744258449.998,14.648,-30.762,214.844,3.418,-55.664
1744258450.002,-40.527,-42.969,6.348,-19.043,-75.195
1744258450.006,-117.676,-52.246,-265.137,-54.688,-41.504
1744258450.010,-83.008,-44.922,-127.930,-41.504,-43.945
1744258450.014,18.555,-30.762,184.082,-6.348,-34.668
1744258450.018,7.324,-41.504,91.309,-17.578,-52.734
1744258450.022,-123.535,-59.570,-254.883,-60.547,-63.477
1744258450.025,-108.887,-45.898,-212.402,-48.340,-50.781
1744258450.029,7.812,-23.926,153.809,-7.812,-21.973
1744258450.033,6.836,-21.973,198.730,-20.508,-1.953
1744258450.037,-93.750,-51.758,-159.668,-60.059,-43.945
1744258450.041,-131.836,-58.594,-281.250,-59.082,8.789
1744258450.045,-34.180,-36.133,50.781,-13.672,110.840
1744258450.049,36.621,-32.715,199.707,9.766,34.668
1744258450.053,-32.715,-42.480,-81.543,-22.949,-26.367
1744258450.057,-123.535,-53.223,-278.809,-59.082,-9.766
1744258450.061,-69.824,-41.016,-41.504,-31.250,21.484
1744258450.065,18.555,-28.809,215.332,3.418,-7.812
1744258450.068,-30.273,-41.016,36.133,-27.832,-96.680
1744258450.072,-125.000,-58.594,-272.461,-69.824,-34.668
1744258450.076,-87.402,-44.922,-139.648,-37.598,38.086
1744258450.080,37.598,-21.973,198.730,7.812,82.031
1744258450.084,12.695,-35.156,135.742,-8.789,-2.930
1744258450.088,-108.398,-60.547,-219.727,-63.965,-87.402
1744258450.092,-122.070,-57.129,-235.352,-62.012,84.473
1744258450.096,-12.695,-29.785,132.324,-5.371,105.957
1744258450.100,48.340,-20.996,213.867,2.930,-7.812
1744258450.104,-55.176,-42.969,-132.812,-36.621,-27.832
1744258450.107,-127.441,-47.363,-264.648,-52.246,-20.020
1744258450.111,-32.227,-27.832,36.621,-14.160,1.953
1744258450.115,50.781,-17.578,218.750,4.883,-21.973
1744258450.119,-21.973,-36.133,-41.504,-25.391,-112.305
1744258450.123,-115.723,-50.293,-265.137,-56.641,-45.898
1744258450.127,-68.359,-32.227,-35.156,-28.320,-4.883
1744258450.131,41.504,-16.602,227.051,-4.395,-74.707
1744258450.135,17.090,-29.785,57.129,-30.273,-112.305
1744258450.139,-110.352,-47.852,-259.766,-62.500,-96.191
1744258450.143,-101.562,-34.668,-180.176,-46.875,-39.551
1744258450.147,9.766,-10.742,178.223,7.812,-9.277
1744258450.150,16.113,-20.996,156.250,-0.488,8.301
1744258450.154,-84.961,-44.434,-208.496,-65.430,-47.852
1744258450.158,-104.980,-45.898,-250.488,-54.199,-81.055
1744258450.162,1.953,-27.344,96.191,0.977,-28.809
1744258450.166,40.527,-20.508,202.637,-2.930,-121.094
1744258450.170,-57.129,-32.227,-101.074,-50.293,-204.590
1744258450.174,-116.211,-38.574,-261.230,-61.035,-79.102
1744258450.178,-43.457,-26.367,14.160,-14.160,38.574
1744258450.182,28.809,-19.531,218.750,8.301,-62.988
1744258450.186,-39.551,-30.273,-19.531,-36.621,-105.469
1744258450.189,-119.141,-36.621,-272.461,-67.871,-69.824
1744258450.193,-60.059,-27.832,-89.844,-30.762,-74.219
1744258450.197,32.227,-16.113,199.707,13.184,-1.465
1744258450.201,3.418,-20.020,84.961,-18.555,10.254
1744258450.205,-109.863,-35.156,-234.375,-61.523,-160.645
1744258450.209,-119.629,-36.133,-183.594,-37.598,-131.348
1744258450.213,10.254,-16.602,157.715,-0.977,-10.254
1744258450.217,30.762,-15.137,182.129,-13.672,-36.133
1744258450.221,-90.332,-40.039,-165.039,-49.805,-83.496
1744258450.225,-120.605,-41.504,-258.789,-57.617,-82.031
1744258450.229,-25.879,-30.273,63.477,-3.418,54.199
1744258450.232,20.508,-33.691,198.242,14.160,89.844
1744258450.236,-44.922,-43.945,-98.633,-57.129,-23.438
1744258450.240,-112.305,-46.875,-281.250,-64.453,-45.410
1744258450.244,-39.551,-30.762,-18.066,-15.625,-20.996
1744258450.248,49.316,-19.531,216.797,-2.930,-42.480
1744258450.252,-31.738,-39.551,-3.906,-31.738,-104.004
1744258450.256,-137.207,-55.664,-288.086,-62.012,-83.008
1744258450.260,-72.266,-35.645,-118.164,-39.551,16.602
1744258450.264,36.621,-14.648,205.078,3.418,81.055
1744258450.268,-13.184,-30.273,113.281,0.000,52.734
1744258450.272,-112.305,-42.969,-222.168,-54.199,-23.926
1744258450.275,-110.840,-40.527,-226.074,-66.895,-5.371
1744258450.279,-3.418,-28.320,115.723,-8.301,83.008
1744258450.283,40.527,-22.461,173.340,4.883,44.434
1744258450.287,-64.453,-38.574,-158.203,-41.992,-20.020
1744258450.291,-111.328,-47.852,-273.926,-59.082,-3.906
1744258450.295,-19.531,-31.738,36.621,-11.719,17.090
1744258450.299,38.086,-29.297,205.078,15.137,-46.875
1744258450.303,-57.617,-38.086,-64.453,-27.832,-81.543
1744258450.307,-135.742,-36.621,-277.832,-52.246,-66.895
1744258450.311,-78.613,-26.855,-37.109,-27.344,-10.742
1744258450.315,15.137,-18.555,218.750,0.977,2.930
1744258450.318,-15.625,-28.809,35.645,-20.996,-30.273
1744258450.322,-118.652,-45.898,-272.461,-63.477,-120.605
1744258450.326,-83.008,-35.156,-160.156,-50.781,-69.336
1744258450.330,23.438,-24.414,167.480,2.930,-45.898
1744258450.334,16.113,-31.250,131.836,0.488,-110.840
1744258450.338,-80.566,-45.898,-200.684,-47.363,-67.383
1744258450.342,-80.566,-41.992,-230.469,-46.875,-51.270
1744258450.346,16.602,-21.484,106.934,0.000,-7.812
1744258450.350,46.387,-22.461,189.941,-2.441,4.883
1744258450.354,-53.223,-40.527,-144.531,-60.059,-132.812
1744258450.358,-127.930,-37.598,-273.926,-62.012,-167.480
1744258450.361,-32.227,-17.578,28.809,-9.277,-81.055
1744258450.365,47.852,-12.695,207.520,7.324,6.836
1744258450.369,-39.551,-34.180,-57.129,-35.156,-20.020
1744258450.373,-127.930,-41.504,-299.805,-49.316,-75.195
1744258450.377,-59.082,-22.949,-94.727,-25.879,74.707
1744258450.381,41.992,-5.371,212.891,-5.859,177.246
1744258450.385,18.066,-15.625,73.242,-5.859,102.051
1744258450.389,-88.867,-41.016,-268.066,-31.250,14.648
1744258450.393,-87.891,-38.086,-193.848,-36.133,22.949
1744258450.397,40.527,-11.230,159.180,-15.625,45.410
1744258450.400,55.664,-7.812,148.438,-11.230,-32.227
1744258450.404,-66.895,-23.926,-189.941,-48.828,-75.684
1744258450.408,-112.793,-28.320,-229.004,-65.430,9.277
1744258450.412,-9.277,-16.113,89.844,-20.508,40.039
1744258450.416,31.738,-19.043,176.270,-11.719,-37.598
1744258450.420,-60.547,-37.109,-139.648,-52.246,-75.195
1744258450.424,-122.559,-45.410,-302.734,-57.129,-44.922
1744258450.428,-33.203,-24.414,0.977,-26.367,16.602
1744258450.432,33.691,-16.602,212.402,0.000,-9.766
1744258450.436,-44.434,-34.180,-26.855,-13.672,-93.262
1744258450.440,-113.770,-40.039,-287.109,-59.570,-57.129
1744258450.443,-72.266,-30.762,-112.793,-50.293,3.906
1744258450.447,21.973,-19.043,197.266,5.859,8.301
1744258450.451,11.230,-19.043,101.562,-12.695,-9.766
1744258450.455,-92.773,-35.156,-229.980,-59.570,-7.812
1744258450.459,-83.984,-40.039,-214.355,-50.293,-0.488
1744258450.463,28.809,-22.461,131.348,0.488,-6.348
1744258450.467,31.738,-20.996,159.668,16.602,-17.578
1744258450.471,-68.359,-39.062,-185.547,-52.246,-108.887
1744258450.475,-98.633,-38.574,-256.348,-69.336,-38.086
1744258450.479,-7.324,-24.414,64.453,-10.742,-32.227
1744258450.483,39.551,-21.484,196.777,17.090,-111.328
1744258450.486,-62.988,-41.504,-103.027,-26.367,-89.355
1744258450.490,-129.883,-50.781,-285.156,-61.035,-134.277
1744258450.494,-52.734,-33.691,-21.973,-20.996,-55.176
1744258450.498,34.180,-19.531,224.121,4.395,-23.438
1744258450.502,-13.184,-28.809,43.945,-25.391,-113.770
1744258450.506,-122.559,-46.387,-253.418,-60.059,-141.602
1744258450.510,-87.402,-42.969,-148.438,-41.016,-42.480
1744258450.514,35.645,-25.879,179.199,3.906,65.430
1744258450.518,21.973,-28.320,112.305,-24.902,-19.531
1744258450.522,-84.961,-49.316,-235.352,-65.918,-67.383
1744258450.525,-101.562,-43.457,-215.820,-39.062,-48.828
1744258450.529,2.441,-24.902,135.742,-5.859,-41.016
1744258450.533,43.457,-25.879,167.969,-13.184,-89.844
1744258450.537,-65.918,-37.109,-161.621,-51.270,-160.645
1744258450.541,-120.117,-35.645,-260.742,-49.316,-112.793
1744258450.545,-34.180,-17.578,64.453,0.488,-17.090
1744258450.549,13.672,-19.043,229.980,-0.977,-24.902
1744258450.553,-56.152,-41.992,-59.570,-41.504,-26.367
1744258450.557,-117.188,-50.781,-291.016,-64.453,-6.836
1744258450.561,-53.711,-36.621,-59.570,-28.809,40.527
1744258450.565,33.203,-16.602,234.375,12.207,92.773
1744258450.568,2.930,-21.973,80.078,-8.301,42.480
1744258450.572,-100.098,-45.898,-262.207,-55.176,-37.598
1744258450.576,-99.121,-42.480,-178.223,-49.316,-46.387
1744258450.580,15.137,-22.949,163.086,-17.578,-47.852
1744258450.584,35.645,-22.461,127.930,-30.273,-59.570
1744258450.588,-81.543,-36.621,-214.355,-68.848,-72.754
1744258450.592,-106.934,-32.715,-223.633,-50.781,-36.133
1744258450.596,8.789,-15.625,128.418,-14.648,37.109
1744258450.600,50.781,-13.184,197.266,-11.230,10.742
1744258450.604,-48.828,-35.645,-152.344,-58.105,-123.535
1744258450.607,-109.375,-43.457,-297.363,-90.820,-166.992
1744258450.611,-24.902,-20.996,5.859,-43.945,7.324
1744258450.615,40.039,-8.789,205.566,-2.441,104.492
1744258450.615,40.039,-8.789,205.566,-2.441,104.492
1744258450.619,-17.578,-24.414,-40.527,-27.832,-24.414
1744258450.623,-95.215,-35.156,-285.156,-66.895,-107.910
1744258450.627,-62.988,-29.785,-101.562,-41.504,-84.473
1744258450.631,29.785,-14.160,197.266,2.930,-50.781
1744258450.635,4.883,-20.020,62.500,-17.090,-81.055
1744258450.639,-83.008,-34.180,-259.766,-59.082,-165.527
1744258450.643,-84.961,-27.832,-205.078,-51.758,-94.238
1744258450.647,25.391,-7.324,134.277,-9.277,-12.695
1744258450.650,40.039,-8.789,130.859,-8.789,-94.238
1744258450.654,-73.242,-35.156,-229.004,-55.664,-157.227
1744258450.658,-101.562,-36.621,-274.414,-48.340,-40.039
1744258450.662,-1.465,-17.090,88.379,-1.953,7.324
1744258450.666,50.293,-15.137,181.641,8.789,-60.547
1744258450.670,-42.969,-30.273,-134.277,-17.578,-110.352
1744258450.674,-109.863,-38.086,-293.945,-67.383,-97.656
1744258450.678,-35.156,-24.902,-16.602,-43.945,43.945
1744258450.682,34.180,-14.160,220.703,-6.348,59.570
1744258450.686,-12.695,-29.297,2.930,-57.617,-51.270
1744258450.690,-107.910,-42.480,-290.527,-81.543,-87.402
1744258450.693,-80.078,-33.203,-125.977,-45.410,-69.336
1744258450.697,35.645,-21.484,185.547,-14.648,-44.922
1744258450.701,20.508,-21.484,82.520,-13.672,-97.168
1744258450.705,-96.191,-39.551,-252.930,-49.316,-99.609
1744258450.709,-105.957,-37.109,-210.449,-51.270,-16.113
1744258450.713,-6.836,-17.090,143.555,-10.254,-21.973
1744258450.717,16.602,-18.555,167.969,-1.465,-66.895
1744258450.721,-81.055,-37.109,-178.223,-42.969,-90.820
1744258450.725,-119.141,-38.574,-269.043,-74.219,-48.340
1744258450.729,-31.738,-23.438,59.570,-22.949,34.180
1744258450.733,27.832,-14.648,219.238,6.836,38.086
1744258450.736,-37.109,-31.250,-67.383,-30.762,-26.367
1744258450.740,-111.328,-43.457,-275.391,-39.551,-39.551
1744258450.744,-54.688,-31.250,-42.969,-10.742,26.855
1744258450.748,31.250,-26.367,189.453,-6.836,3.418
1744258450.752,-20.996,-34.668,13.672,-41.992,-48.340
1744258450.756,-105.957,-42.969,-260.254,-66.895,10.254
1744258450.760,-75.684,-42.480,-139.648,-33.203,59.082
1744258450.764,18.066,-20.020,188.477,3.906,94.238
1744258450.768,9.277,-20.996,117.188,-23.438,53.223
1744258450.772,-91.797,-40.527,-233.398,-52.246,-4.883
1744258450.775,-96.191,-40.527,-226.074,-57.617,0.488
1744258450.779,11.230,-11.719,134.766,-13.184,22.461
1744258450.783,48.828,-4.395,201.660,13.184,8.301
1744258450.787,-58.105,-36.621,-154.297,-40.039,-61.523
1744258450.791,-117.676,-44.434,-289.551,-69.824,-57.617
1744258450.795,-33.203,-23.438,22.461,-12.695,-45.410
1744258450.799,32.227,-18.555,197.266,18.066,-76.660
1744258450.803,-33.203,-31.738,-53.223,-42.480,-103.027
1744258450.807,-117.676,-43.945,-283.691,-72.266,-36.133
1744258450.811,-63.965,-34.180,-70.801,-35.156,50.293
1744258450.815,43.457,-17.578,205.566,4.395,-59.082
1744258450.818,-0.488,-25.391,46.875,0.000,-170.898
1744258450.822,-107.422,-42.969,-260.742,-54.199,-90.332
1744258450.826,-86.426,-38.574,-150.391,-56.152,-31.250
1744258450.830,14.160,-24.902,184.082,-7.324,-1.465
1744258450.834,15.137,-27.344,144.531,-12.207,-43.457
1744258450.838,-89.355,-51.758,-216.309,-62.500,-75.195
1744258450.842,-116.211,-52.246,-253.418,-72.754,-26.367
1744258450.846,-0.977,-19.531,115.723,-19.531,14.160
1744258450.850,52.734,-13.184,205.078,2.930,47.363
1744258450.854,-57.129,-38.574,-144.531,-41.504,17.578
1744258450.858,-132.324,-51.758,-295.410,-70.312,18.066
1744258450.861,-41.504,-29.785,11.230,-35.645,78.613
1744258450.865,57.129,-12.695,220.215,1.953,35.156
1744258450.869,-23.438,-30.762,-31.738,-33.203,-40.527
1744258450.873,-120.117,-39.062,-270.020,-58.105,36.133
1744258450.877,-66.895,-31.250,-70.801,-28.809,26.367
1744258450.881,33.203,-24.414,203.613,0.000,-2.441
1744258450.885,25.879,-27.344,70.312,-13.184,-35.645
1744258450.889,-89.844,-43.457,-254.395,-60.547,-114.258
1744258450.893,-93.262,-43.945,-201.172,-48.340,26.855
1744258450.897,29.297,-22.949,147.461,6.836,138.672
1744258450.901,31.738,-21.484,161.621,-0.488,23.926
1744258450.904,-82.031,-41.992,-180.176,-57.129,-56.641
1744258450.908,-111.328,-47.852,-250.488,-66.895,-38.574
1744258450.912,-9.766,-25.879,93.262,-22.461,-6.836
1744258450.916,40.527,-14.160,219.238,-0.488,-56.641
1744258450.920,-50.781,-32.227,-89.355,-41.016,-135.742
1744258450.924,-117.188,-45.410,-266.113,-77.637,-53.223
1744258450.928,-49.316,-26.367,16.113,-38.574,3.906
1744258450.932,19.531,-17.578,234.375,-20.996,7.324
1744258450.936,-16.602,-39.551,-7.324,-47.852,-52.246
1744258450.940,-104.004,-55.176,-286.133,-61.035,-89.355
1744258450.943,-84.961,-34.668,-104.980,-35.156,-61.035
1744258450.947,21.484,-17.090,206.543,-1.465,0.977
1744258450.951,13.672,-27.344,109.863,-20.020,63.477
1744258450.955,-97.168,-47.363,-224.609,-67.383,1.465
1744258450.959,-98.145,-44.922,-194.824,-39.551,2.441
1744258450.963,8.789,-26.855,157.227,14.648,39.551
1744258450.967,37.598,-23.438,197.266,-16.602,-46.875
1744258450.971,-64.453,-41.992,-154.297,-88.867,-75.195
1744258450.975,-115.234,-44.434,-257.324,-87.402,40.527
1744258450.979,-19.043,-26.367,61.035,-35.156,28.320
1744258450.983,44.922,-23.438,209.961,-6.348,-78.125
1744258450.986,-32.227,-40.527,-86.426,-37.109,-151.855
1744258450.990,-104.492,-44.434,-275.879,-69.336,-165.039
1744258450.994,-32.715,-26.855,-21.484,-43.945,-99.609
1744258450.998,56.152,-16.113,223.633,2.930,-27.832
1744258451.002,11.230,-32.227,30.273,-28.809,-23.926
1744258451.006,-103.027,-50.293,-257.324,-62.012,-55.176
1744258451.010,-82.031,-37.598,-134.766,-37.598,-42.480
1744258451.014,20.996,-16.113,196.289,-21.484,16.113
1744258451.018,20.996,-28.320,138.184,-32.227,-75.684
1744258451.022,-86.426,-50.781,-216.309,-67.871,-162.109
1744258451.025,-109.375,-52.246,-237.793,-63.477,-139.648
1744258451.029,0.000,-35.645,104.492,-25.391,-152.832
1744258451.033,37.598,-27.832,177.246,-4.883,-121.582
1744258451.037,-52.246,-44.922,-141.113,-41.016,-117.676
1744258451.041,-99.609,-51.270,-258.301,-57.129,-42.480
1744258451.045,-33.203,-38.574,25.879,-24.902,7.812
1744258451.049,19.531,-28.320,196.777,-4.395,-2.441
1744258451.053,-42.969,-41.016,-55.664,-41.992,57.129
1744258451.057,-116.699,-49.316,-271.973,-73.242,-0.977
1744258451.061,-45.410,-30.273,-52.246,-42.480,22.949
1744258451.065,47.363,-19.531,210.449,-10.742,95.703
1744258451.068,-5.371,-35.156,54.688,-22.461,14.160
1744258451.072,-109.375,-51.758,-268.066,-44.434,-95.215
1744258451.076,-94.238,-45.410,-188.477,-62.988,-67.383
1744258451.080,20.020,-25.879,155.762,-23.438,-22.949
1744258451.084,38.574,-27.832,138.672,-12.695,-115.234
1744258451.088,-65.918,-45.410,-206.055,-66.406,-120.605
1744258451.092,-101.074,-47.852,-249.023,-71.777,-112.305
1744258451.096,-18.066,-31.250,87.891,-15.625,-82.520
1744258451.100,15.137,-16.602,197.754,-7.812,-75.684
1744258451.104,-65.430,-31.738,-110.352,-50.293,-53.711
1744258451.108,-114.258,-41.992,-269.531,-61.523,7.812
1744258451.111,-42.480,-24.902,6.348,-27.832,18.555
1744258451.115,21.973,-18.066,204.590,0.488,59.082
1744258451.119,-43.457,-40.039,-45.898,-19.043,41.992
1744258451.123,-124.512,-52.246,-291.992,-49.805,-61.035
1744258451.127,-68.359,-26.855,-86.426,-54.688,-43.945
1744258451.131,39.551,-12.695,205.078,-25.391,56.152
1744258451.135,5.859,-32.715,76.660,-35.156,29.785
1744258451.139,-114.746,-48.828,-257.812,-79.590,-75.195
1744258451.143,-102.051,-44.434,-213.379,-55.176,-71.777
1744258451.147,17.578,-26.855,144.531,-12.207,-47.852
1744258451.151,32.227,-22.461,159.668,-6.836,-43.945
1744258451.154,-75.684,-36.621,-180.176,-61.523,-44.434
1744258451.158,-103.516,-41.992,-256.836,-80.566,23.438
1744258451.162,-0.977,-19.043,83.008,-22.461,49.316
1744258451.166,46.387,-16.113,190.918,-6.836,-71.289
1744258451.170,-35.156,-36.621,-117.676,-54.199,-104.004
1744258451.174,-100.098,-44.434,-290.039,-69.824,-19.043
1744258451.178,-26.367,-25.879,-30.762,-23.438,64.453
1744258451.182,67.383,-10.742,209.961,8.301,91.309
1744258451.186,17.578,-24.902,-0.977,-14.160,-39.551
1744258451.190,-88.379,-45.898,-291.504,-59.570,-99.121
1744258451.193,-67.383,-38.086,-138.184,-61.523,44.434
1744258451.197,37.598,-20.996,189.941,-16.602,40.039
1744258451.201,29.785,-22.949,123.047,-10.742,17.090
1744258451.205,-73.242,-40.527,-218.262,-53.223,-5.371
1744258451.209,-99.121,-42.969,-214.355,-47.363,55.176
1744258451.213,4.883,-21.973,129.395,10.742,103.027
1744258451.217,37.109,-20.020,177.734,0.000,77.148
1744258451.221,-79.590,-38.086,-145.020,-60.547,22.461
1744258451.225,-116.211,-41.016,-237.793,-70.312,-38.086
1744258451.229,-25.391,-25.391,59.570,-29.785,67.383
1744258451.233,32.227,-20.508,200.195,0.488,57.129
1744258451.236,-45.898,-40.039,-89.844,-41.016,-47.852
1744258451.240,-125.488,-47.852,-290.527,-80.078,-57.617
1744258451.244,-57.129,-29.297,-42.969,-42.969,-11.719
1744258451.248,35.156,-16.113,234.863,-9.766,-21.973
1744258451.252,-16.113,-31.250,56.152,-49.805,-124.512
1744258451.256,-122.559,-54.199,-273.438,-89.844,-207.520
1744258451.260,-79.102,-46.387,-163.574,-75.195,-106.934
1744258451.264,46.387,-18.066,179.688,-29.785,-15.625
1744258451.268,12.695,-25.879,128.418,-29.785,-127.441
1744258451.272,-101.074,-42.969,-216.309,-67.383,-115.234
1744258451.276,-112.793,-35.156,-225.586,-68.359,-43.457
1744258451.279,-5.859,-15.137,132.812,-7.324,-42.480
1744258451.283,37.109,-14.160,196.777,3.906,-131.348
1744258451.287,-47.363,-38.574,-137.695,-46.875,-168.457
1744258451.291,-104.492,-49.316,-256.836,-41.016,-57.129
1744258451.295,-28.809,-29.297,56.152,-2.441,69.824
1744258451.299,45.898,-21.484,233.398,-10.742,2.441
1744258451.303,-34.668,-41.504,-32.715,-41.992,-124.023
1744258451.307,-114.746,-51.270,-275.879,-65.918,-91.797
1744258451.311,-57.617,-37.598,-75.684,-28.809,20.020
1744258451.315,28.809,-21.973,207.520,-8.789,76.172
1744258451.318,-2.441,-27.344,75.195,-42.969,4.395
1744258451.322,-99.121,-45.898,-255.859,-71.289,-72.266
1744258451.326,-111.816,-46.875,-182.129,-52.246,-17.578
1744258451.330,-11.719,-29.297,167.480,-19.043,59.082
1744258451.334,1.953,-26.367,147.461,-14.160,-30.273
1744258451.338,-104.004,-45.898,-193.848,-55.664,-55.664
1744258451.342,-114.258,-47.363,-229.492,-82.031,-18.066
1744258451.346,-11.230,-29.785,86.914,-43.457,42.969
1744258451.350,16.602,-21.973,187.012,-22.461,56.152
1744258451.354,-73.242,-42.969,-128.906,-64.941,-42.480
1744258451.358,-126.465,-53.223,-294.434,-87.402,-32.227
1744258451.361,-27.832,-30.762,-17.090,-31.250,-22.461
1744258451.365,54.199,-14.648,197.266,-13.184,-13.672
1744258451.369,-13.184,-26.367,-22.461,-45.898,9.277
1744258451.373,-87.891,-38.574,-277.832,-72.266,32.715
1744258451.377,-41.992,-31.250,-111.816,-50.781,64.941
1744258451.381,40.039,-20.508,184.570,-6.348,39.551
1744258451.385,9.277,-31.738,89.355,-12.695,-47.852
1744258451.389,-98.145,-49.316,-222.168,-53.223,-56.641
1744258451.393,-109.375,-46.875,-185.059,-47.363,-16.113
1744258451.397,3.418,-30.762,144.043,0.488,82.520
1744258451.401,37.109,-29.297,161.621,-12.695,51.758
1744258451.404,-75.684,-58.594,-200.195,-58.105,-15.625
1744258451.408,-117.676,-60.547,-279.297,-54.688,-20.020
1744258451.412,-11.230,-35.156,71.777,-18.555,-43.457
1744258451.416,42.969,-30.273,188.477,-11.719,28.320
1744258451.420,-46.387,-45.898,-124.512,-41.016,48.340
1744258451.424,-116.699,-53.711,-305.664,-47.363,-123.047
1744258451.428,-50.781,-40.039,-42.480,-49.805,-165.527
1744258451.432,31.250,-27.344,204.102,-15.137,-7.324
1744258451.436,-28.809,-39.551,7.324,-19.043,-37.109
1744258451.440,-135.254,-61.523,-287.598,-70.312,-101.074
1744258451.443,-88.379,-51.758,-142.090,-47.363,-47.363
1744258451.447,26.855,-36.621,175.293,-4.395,-34.180
1744258451.451,9.766,-42.480,103.516,-23.438,-129.883
1744258451.455,-101.562,-53.223,-237.305,-68.359,-156.738
1744258451.459,-110.840,-47.852,-226.562,-61.035,-10.254
1744258451.463,-0.488,-26.855,119.629,-23.926,-3.906
1744258451.467,25.879,-28.320,162.109,-19.043,-66.895
1744258451.471,-63.477,-52.246,-174.805,-65.918,-79.102
1744258451.475,-114.258,-48.828,-269.531,-70.801,-104.492
1744258451.479,-23.438,-28.809,54.199,-17.090,-66.895
1744258451.483,50.293,-22.461,217.285,-9.766,-47.852
1744258451.486,-35.156,-39.551,-66.895,-61.523,-67.383
1744258451.490,-117.676,-51.758,-283.691,-72.266,-47.852
1744258451.494,-49.316,-33.203,-63.477,-46.875,-7.324
1744258451.498,52.246,-17.090,189.941,-7.812,28.320
1744258451.502,0.977,-31.738,41.992,-24.902,14.160
1744258451.506,-94.238,-47.852,-254.395,-75.684,-110.352
1744258451.510,-68.848,-40.039,-169.434,-48.340,-62.012
1744258451.514,14.160,-24.414,164.551,-1.465,33.691
1744258451.518,27.832,-27.832,128.418,-13.184,-40.527
1744258451.522,-74.707,-41.504,-209.473,-53.711,-66.895
1744258451.526,-106.934,-43.945,-227.539,-51.270,-11.230
1744258451.529,7.324,-24.414,121.582,-16.602,6.348
1744258451.533,51.758,-22.461,192.383,5.859,-26.367
1744258451.537,-38.574,-43.945,-135.742,-40.039,-62.500
1744258451.541,-88.379,-46.387,-271.973,-62.500,-89.844
1744258451.545,-10.742,-23.926,23.438,-15.137,-24.414
1744258451.549,43.457,-19.043,212.891,1.465,77.637
1744258451.553,-15.137,-37.109,-30.273,-29.785,-4.395
1744258451.557,-95.215,-47.363,-278.809,-59.570,-83.008
1744258451.561,-58.105,-37.598,-92.285,-25.391,-29.297
1744258451.565,45.410,-22.461,190.430,6.348,-45.410
1744258451.568,11.230,-21.484,62.988,-18.555,-48.340
1744258451.572,-99.121,-40.527,-256.836,-55.176,15.137
1744258451.576,-84.473,-28.320,-178.711,-39.062,44.922
1744258451.580,26.367,-4.883,179.199,-7.812,25.879
1744258451.584,35.645,-18.066,163.574,-11.719,-39.551
1744258451.588,-60.547,-41.016,-201.172,-30.762,-94.238
1744258451.592,-92.773,-47.363,-268.066,-52.246,-18.555
1744258451.596,-2.441,-27.344,77.148,-31.250,62.012
1744258451.600,43.457,-16.113,204.102,-16.602,9.277
1744258451.604,-48.340,-37.109,-118.164,-57.129,-70.801
1744258451.608,-109.375,-50.293,-297.852,-79.102,-83.008
1744258451.611,-44.922,-37.109,-20.020,-38.086,-37.109
1744258451.615,38.574,-19.531,209.961,-4.883,-0.977
1744258451.619,-11.719,-27.832,-8.301,-27.344,-88.379
1744258451.623,-119.629,-43.945,-275.391,-59.570,-114.746
1744258451.627,-73.242,-38.574,-115.723,-46.875,-14.160
1744258451.631,37.598,-22.461,186.523,4.395,45.410
1744258451.635,7.324,-28.809,82.520,-7.812,-29.785
1744258451.639,-89.355,-42.969,-242.188,-41.016,-138.184
1744258451.643,-90.820,-40.527,-221.191,-38.574,-119.141
1744258451.647,3.906,-20.020,117.676,-19.043,-60.547
1744258451.651,35.645,-12.695,158.691,-19.531,-26.367
1744258451.654,-71.777,-35.645,-167.969,-58.594,-101.562
1744258451.658,-114.746,-41.016,-258.789,-49.316,-111.816
1744258451.662,-8.789,-23.438,63.965,-20.508,57.617
1744258451.666,51.270,-23.926,202.637,-16.113,85.938
1744258451.670,-33.691,-36.133,-86.426,-52.246,-94.727
1744258451.674,-101.562,-41.016,-262.695,-76.660,-165.527
1744258451.678,-38.574,-29.785,-22.461,-31.738,-57.617
1744258451.682,45.898,-15.137,204.102,6.836,14.648
1744258451.686,2.930,-29.297,4.395,-28.320,-51.270
1744258451.690,-100.586,-46.875,-285.645,-62.500,-133.789
1744258451.693,-76.172,-34.180,-137.695,-49.805,-150.391
1744258451.697,41.992,-18.555,184.082,-4.883,-90.820
1744258451.701,24.902,-27.832,99.121,-6.348,-20.508
1744258451.705,-106.445,-46.387,-243.652,-58.594,-65.430
1744258451.709,-113.281,-43.457,-227.539,-69.824,-47.852
1744258451.713,4.395,-24.902,123.047,-38.086,80.078
1744258451.717,31.738,-16.113,186.035,-23.926,53.711
1744258451.721,-72.754,-43.457,-150.879,-59.570,-22.949
1744258451.725,-108.887,-54.199,-265.137,-72.754,9.766
1744258451.729,-30.762,-32.227,38.086,-20.508,80.078
1744258451.733,34.180,-28.320,198.242,7.324,62.012
1744258451.736,-28.320,-42.480,-68.359,-34.180,-41.016
1744258451.740,-107.422,-49.805,-280.762,-54.688,-57.617
1744258451.744,-51.758,-38.574,-56.641,-26.367,-60.059
1744258451.748,25.879,-27.832,204.102,-4.395,-91.309
1744258451.752,-17.578,-38.086,10.254,-31.250,-77.148
1744258451.756,-110.352,-49.316,-267.090,-64.453,-32.715
1744258451.760,-77.148,-39.062,-152.832,-58.105,-46.875
1744258451.764,41.992,-14.160,174.316,-15.137,-73.730
1744258451.768,33.691,-13.672,150.879,-5.371,-37.598
1744258451.772,-78.613,-37.109,-211.914,-38.086,-31.738
1744258451.776,-113.770,-41.992,-254.395,-63.965,11.719
1744258451.779,-4.395,-24.902,86.914,-29.297,39.551
1744258451.783,48.340,-18.066,194.336,-5.859,-5.859
1744258451.787,-44.434,-33.691,-125.488,-59.082,-41.504
1744258451.791,-89.355,-40.527,-285.156,-60.547,-25.879
1744258451.795,-15.137,-24.902,8.301,-8.301,13.672
1744258451.799,57.129,-16.602,200.684,0.977,-27.832
1744258451.803,-14.648,-34.180,-40.527,-38.574,-141.113
1744258451.807,-102.051,-41.992,-275.879,-61.035,-138.672
1744258451.811,-41.992,-18.066,-68.359,-34.180,-52.734
1744258451.815,54.688,-5.371,215.332,9.766,-9.766
1744258451.818,25.391,-20.020,83.008,-1.465,-51.270
1744258451.822,-73.730,-40.527,-252.441,-59.570,-106.445
1744258451.826,-74.707,-33.203,-202.148,-65.918,-131.348
1744258451.830,23.438,-10.742,140.625,-14.648,28.320
1744258451.834,56.641,-17.578,151.367,-7.812,18.066
1744258451.838,-58.594,-43.945,-187.988,-54.199,-120.605
1744258451.842,-109.863,-40.527,-256.348,-51.758,-42.480
1744258451.846,2.441,-21.973,68.848,-12.207,84.473
1744258451.850,45.410,-23.438,191.895,-9.277,3.418
1744258451.854,-54.688,-42.480,-110.840,-49.316,-149.902
1744258451.858,-119.629,-45.410,-277.832,-67.383,-94.727
1744258451.861,-41.016,-28.320,-8.301,-32.227,-15.625
1744258451.865,46.875,-16.602,220.215,-4.395,-117.188
1744258451.869,-9.277,-32.227,-19.531,-32.715,-191.406
1744258451.873,-99.121,-46.387,-300.781,-74.707,-159.180
1744258451.877,-54.688,-28.809,-110.840,-24.414,-102.539
1744258451.881,47.852,-6.348,205.078,20.020,-27.832
1744258451.885,24.902,-16.602,83.984,-24.414,-41.504
1744258451.889,-75.195,-39.062,-258.789,-64.453,-100.098
1744258451.893,-77.637,-36.621,-232.910,-52.734,-22.949
1744258451.897,28.320,-14.648,122.559,-4.395,67.871
1744258451.901,54.688,-17.090,159.668,-0.977,-19.531
1744258451.904,-49.316,-33.203,-173.340,-56.152,-96.680
1744258451.908,-88.379,-30.762,-260.254,-65.918,-28.320
1744258451.912,8.301,-20.508,48.828,-20.020,38.086
1744258451.916,63.965,-22.461,180.176,-5.371,-36.133
1744258451.920,-36.621,-36.133,-98.633,-34.668,-110.840
1744258451.924,-115.234,-45.898,-289.551,-58.105,-26.855
1744258451.928,-41.504,-29.785,-42.480,-29.297,22.461
1744258451.932,33.691,-9.277,218.750,16.602,-40.039
1744258451.936,-10.254,-19.531,39.551,-4.883,-95.703
1744258451.940,-110.840,-40.039,-267.090,-57.129,-85.449
1744258451.944,-94.727,-31.250,-143.555,-53.711,12.695
1744258451.947,22.949,-10.254,189.453,-10.254,68.359
1744258451.951,28.809,-17.090,140.625,-13.672,54.199
1744258451.955,-83.008,-41.504,-206.543,-65.918,-9.766
1744258451.959,-104.004,-41.992,-213.379,-70.312,-30.762
1744258451.963,-0.488,-20.020,127.930,-17.578,-35.645
1744258451.967,27.344,-20.508,179.199,-17.090,-50.293
1744258451.971,-66.895,-40.527,-133.789,-66.895,-28.320
1744258451.975,-116.211,-41.504,-236.328,-60.059,-1.465
1744258451.979,-38.574,-29.785,49.805,-26.367,59.570
1744258451.983,28.809,-23.438,219.238,-21.484,-43.457
1744258451.986,-50.293,-40.039,-36.621,-39.551,-166.992
1744258451.990,-141.602,-49.805,-268.066,-75.684,-28.809
1744258451.994,-74.707,-28.320,-53.223,-39.551,82.520
1744258451.998,37.598,-7.324,236.816,5.371,92.285
1744258452.002,0.977,-24.902,77.637,-36.621,48.828
1744258452.006,-107.422,-46.387,-250.488,-74.219,-20.508
1744258452.010,-85.938,-43.945,-174.316,-57.129,31.738
1744258452.014,34.180,-27.344,161.133,-5.859,-16.602
1744258452.018,45.898,-29.785,137.207,-7.324,-116.211
1744258452.022,-64.941,-44.922,-196.777,-45.410,-63.477
1744258452.026,-106.445,-47.852,-228.516,-55.176,-19.043
1744258452.029,-2.441,-35.156,100.586,-28.809,-6.836
1744258452.033,52.734,-30.273,185.547,-17.578,-13.672
1744258452.037,-41.992,-45.410,-126.465,-49.316,-94.727
1744258452.041,-110.840,-49.805,-270.020,-62.012,-70.312
1744258452.045,-20.996,-21.484,28.320,-22.949,10.254
1744258452.049,57.617,-14.160,218.750,-2.441,8.789
1744258452.053,-23.438,-38.086,-30.273,-27.832,-40.039
1744258452.057,-123.535,-49.316,-272.949,-48.828,-96.680
1744258452.061,-76.660,-37.109,-92.285,-36.133,-60.059
1744258452.065,30.273,-23.926,200.684,-16.602,-41.016
1744258452.068,0.977,-33.203,83.008,-42.480,-56.641
1744258452.072,-117.676,-55.664,-257.324,-84.961,-86.914
1744258452.076,-111.816,-56.641,-207.031,-68.848,-25.391
1744258452.080,4.395,-38.086,140.137,-25.879,20.996
1744258452.084,18.066,-36.621,154.297,-20.996,-46.387
1744258452.088,-81.543,-53.711,-174.805,-56.641,-110.840
1744258452.092,-113.770,-49.805,-229.980,-71.777,-85.938
1744258452.096,-17.090,-31.250,86.426,-36.621,-57.617
1744258452.100,31.250,-29.297,190.430,-24.414,-73.730
1744258452.104,-55.664,-41.016,-116.699,-57.129,-122.559
1744258452.108,-118.652,-49.805,-286.621,-51.270,-138.184
1744258452.111,-51.758,-37.598,-19.531,-14.160,-66.406
1744258452.115,33.203,-21.484,223.633,-11.230,15.137
1744258452.119,-12.695,-36.621,4.883,-42.480,-14.648
1744258452.123,-100.586,-54.688,-285.645,-72.754,-95.215
1744258452.127,-62.012,-43.457,-135.742,-44.922,-32.715
1744258452.131,30.273,-22.949,180.664,-6.348,11.719
1744258452.135,31.738,-23.926,102.051,-20.020,8.789
1744258452.139,-68.848,-38.086,-219.238,-58.105,-2.930
1744258452.143,-85.938,-38.574,-199.219,-52.246,50.781
1744258452.147,32.715,-23.438,126.953,6.836,-20.508
1744258452.151,57.129,-25.879,159.668,15.625,-112.305
1744258452.154,-48.828,-42.969,-167.969,-33.203,-128.418
1744258452.158,-81.055,-37.598,-252.930,-51.270,-93.750
1744258452.162,12.207,-17.090,74.707,5.859,41.016
1744258452.166,58.105,-17.090,211.914,35.156,-27.344
1744258452.170,-28.320,-40.039,-81.543,-39.551,-89.355
1744258452.174,-101.074,-53.223,-286.621,-71.777,-70.801
1744258452.178,-35.645,-28.809,-34.180,-19.043,-20.996
1744258452.182,52.734,-16.113,216.797,7.324,23.926
1744258452.186,14.160,-30.762,35.645,-23.438,-43.945
1744258452.190,-93.262,-49.316,-271.484,-58.594,-90.332
1744258452.194,-73.730,-42.480,-162.598,-32.227,-46.875
1744258452.197,35.645,-23.438,165.527,25.879,-18.066
1744258452.201,31.738,-25.391,112.305,12.695,-36.621
1744258452.205,-84.473,-42.480,-229.492,-38.574,-51.758
1744258452.209,-91.797,-39.062,-230.957,-45.898,11.719
1744258452.213,18.555,-19.043,110.840,21.484,112.793
1744258452.217,49.316,-13.184,175.781,16.602,104.980
1744258452.221,-32.715,-32.715,-158.203,-72.266,-22.949
1744258452.225,-85.938,-37.598,-279.785,-81.543,-11.230
1744258452.229,-14.160,-20.508,20.508,-30.273,142.090
1744258452.233,59.570,-12.695,197.266,-7.324,120.117
1744258452.237,-19.531,-29.785,-41.016,-33.691,-75.195
1744258452.240,-106.934,-43.945,-268.555,-56.152,-151.367
1744258452.244,-51.270,-37.598,-84.961,-34.668,-73.730
1744258452.248,43.945,-24.902,177.734,-1.465,28.320
1744258452.252,16.602,-31.250,45.898,-16.113,-2.441
1744258452.256,-77.148,-41.992,-239.746,-54.199,-81.543
1744258452.260,-67.383,-35.645,-170.898,-50.293,-15.625
1744258452.264,31.738,-16.113,157.715,-10.742,74.219
1744258452.268,27.344,-19.043,149.414,-7.324,-7.324
1744258452.272,-91.309,-44.922,-203.613,-46.387,-114.746
1744258452.276,-115.723,-43.457,-249.023,-56.152,-110.352
1744258452.279,-4.883,-17.578,100.098,-31.738,-15.137
1744258452.283,57.129,-16.602,207.520,-0.488,-28.320
1744258452.287,-41.016,-44.922,-124.512,-32.715,-107.910
1744258452.291,-119.629,-50.293,-296.387,-73.242,-133.301
1744258452.295,-31.738,-27.344,-0.977,-28.809,-113.770
1744258452.299,57.129,-20.508,203.613,3.418,-90.820
1744258452.303,-7.324,-34.668,-24.902,-23.438,-29.297
1744258452.307,-100.586,-50.293,-278.809,-52.246,9.766
1744258452.311,-61.035,-41.016,-108.887,-26.855,3.906
1744258452.315,47.852,-17.578,196.289,13.672,52.246
1744258452.319,30.762,-20.996,89.355,-8.789,-74.707
1744258452.322,-80.078,-41.992,-245.117,-46.875,-101.562
1744258452.326,-73.730,-32.227,-185.059,-22.949,21.484
1744258452.330,29.785,-18.555,160.156,6.348,0.488
1744258452.334,44.922,-33.691,147.949,-7.324,-85.449
1744258452.338,-66.895,-49.805,-198.242,-59.570,-109.375
1744258452.342,-100.586,-43.945,-264.160,-60.547,-17.578
1744258452.346,2.441,-17.090,78.125,5.859,66.895
1744258452.350,52.734,-13.184,207.031,16.602,52.734
1744258452.354,-32.227,-38.574,-98.633,-35.156,-49.316
1744258452.358,-96.680,-45.410,-289.551,-72.266,-64.453
1744258452.362,-19.043,-31.738,-41.992,-32.715,18.066
1744258452.365,59.082,-20.020,202.148,1.953,49.805
1744258452.369,0.488,-30.273,-4.883,-27.832,-65.918
1744258452.373,-97.656,-46.387,-271.973,-66.895,-69.824
1744258452.377,-69.336,-39.551,-127.441,-46.875,37.598
1744258452.381,38.086,-20.996,178.711,-3.906,-44.434
1744258452.385,28.809,-19.531,93.262,-13.672,-44.922
1744258452.389,-81.543,-39.551,-230.957,-60.547,-15.625
1744258452.393,-100.586,-42.969,-211.426,-56.641,-30.762
1744258452.397,-1.953,-22.949,120.117,-16.113,5.371
1744258452.401,27.344,-19.043,165.527,-5.371,-15.625
1744258452.404,-71.289,-37.109,-160.645,-43.457,-79.102
1744258452.408,-111.328,-44.922,-267.090,-67.871,-27.344
1744258452.412,-9.766,-24.414,49.805,-16.602,-4.883
1744258452.416,50.781,-15.625,216.309,20.020,-87.891
1744258452.420,-32.715,-36.621,-48.340,-31.250,-127.441
1744258452.424,-106.934,-51.270,-264.648,-64.941,-120.605
1744258452.428,-47.363,-38.086,-68.848,-25.391,-59.082
1744258452.432,37.598,-26.855,180.664,9.766,-7.812
1744258452.436,1.953,-41.992,18.066,-20.020,28.320
1744258452.440,-97.168,-49.805,-265.625,-72.754,28.809
1744258452.444,-77.637,-33.691,-149.414,-58.105,-14.648
1744258452.447,39.062,-21.484,159.180,-1.465,-81.543
1744258452.451,41.992,-30.762,112.305,-10.254,-53.711
1744258452.455,-84.473,-50.293,-231.445,-66.406,-17.090
1744258452.459,-102.051,-41.016,-236.816,-58.594,-53.223
1744258452.463,14.160,-17.578,112.793,-7.324,25.879
1744258452.467,40.527,-15.137,187.988,-5.859,83.008
1744258452.471,-57.129,-31.738,-121.094,-45.410,-22.949
1744258452.475,-97.168,-40.527,-261.230,-66.895,-41.504
1744258452.479,-17.090,-27.344,15.625,-30.273,-2.930
1744258452.483,40.039,-19.043,185.547,-11.230,16.113
1744258452.486,-29.785,-32.715,-70.801,-50.781,-20.508
1744258452.490,-106.934,-42.969,-284.180,-71.777,-60.547
1744258452.494,-51.758,-26.367,-71.777,-42.480,0.977
1744258452.498,45.410,-11.230,203.613,-4.883,64.941
1744258452.502,16.602,-26.367,53.223,-29.785,-4.883
1744258452.506,-99.609,-41.504,-257.812,-59.570,-22.461
1744258452.510,-98.633,-36.133,-173.828,-45.410,41.016
1744258452.514,16.113,-19.531,169.434,-6.348,23.926
1744258452.518,26.367,-23.926,152.832,14.648,-2.930
1744258452.522,-79.590,-42.480,-184.570,-36.133,-8.789
1744258452.526,-110.840,-51.758,-242.676,-68.848,6.348
1744258452.529,-12.207,-35.645,66.406,-6.348,-12.207
1744258452.533,38.086,-18.555,175.293,1.953,-79.590
1744258452.537,-41.016,-27.344,-99.609,-54.199,-89.844
1744258452.541,-104.980,-41.504,-270.508,-57.617,-68.359
1744258452.545,-34.180,-33.203,-15.137,-8.301,20.020
1744258452.549,41.992,-23.926,203.125,-3.418,46.387
1744258452.553,-18.066,-36.621,-13.672,-41.992,-23.438
1744258452.557,-102.539,-46.387,-268.555,-69.336,-29.297
1744258452.561,-61.523,-32.227,-94.238,-45.898,17.090
1744258452.565,31.738,-16.602,204.590,-7.324,0.000
1744258452.569,20.020,-24.414,94.727,-18.066,-2.930
1744258452.572,-99.121,-50.293,-251.953,-59.570,-27.832
1744258452.576,-99.121,-42.480,-211.914,-57.617,-66.406
1744258452.580,21.973,-15.625,147.949,-6.836,-31.738
1744258452.584,43.945,-20.996,166.504,2.441,-81.055
1744258452.588,-63.965,-42.480,-176.758,-50.781,-85.449
1744258452.592,-94.727,-45.898,-247.070,-61.523,-0.488
1744258452.596,3.906,-25.391,77.637,-9.277,-25.391
1744258452.600,55.176,-18.555,202.637,12.207,-44.922
1744258452.604,-25.391,-39.062,-85.449,-34.180,-70.312
1744258452.608,-92.773,-43.457,-261.230,-51.270,-87.891
1744258452.612,-23.926,-24.902,-10.254,-26.855,37.598
1744258452.615,38.086,-12.207,207.520,-9.277,58.594
1744258452.619,-23.926,-22.461,3.418,-30.762,-79.590
1744258452.623,-112.305,-42.480,-282.715,-65.918,-93.750
1744258452.627,-92.285,-29.785,-144.043,-34.668,-8.789
1744258452.631,23.438,-6.836,194.336,5.371,4.883
1744258452.635,29.297,-18.066,109.375,-13.184,-27.832
1744258452.639,-96.191,-41.504,-239.746,-62.012,-31.738
1744258452.643,-113.281,-44.434,-230.957,-59.570,-60.059
1744258452.647,7.812,-22.949,121.094,1.953,-52.734
1744258452.651,48.828,-18.555,180.176,-1.465,-18.066
1744258452.655,-51.758,-36.133,-139.648,-48.340,-23.438
1744258452.658,-91.309,-41.016,-241.699,-55.664,-28.809
1744258452.662,-7.324,-24.414,63.477,-0.977,11.230
1744258452.666,43.945,-20.508,199.707,29.785,23.926
1744258452.670,-29.297,-34.180,-76.172,-17.578,-73.730
1744258452.674,-103.027,-41.992,-290.527,-44.922,-112.793
1744258452.678,-39.062,-31.738,-62.988,-39.062,-33.203
1744258452.682,55.176,-21.484,212.891,-10.742,-40.039
1744258452.686,16.113,-30.762,38.574,-30.273,-39.062
1744258452.690,-92.285,-46.387,-280.762,-64.453,-41.504
1744258452.694,-75.195,-39.551,-175.781,-46.387,-69.336
1744258452.697,33.691,-20.020,166.992,-11.230,-28.320
1744258452.701,30.273,-14.160,145.996,-20.996,-63.965
1744258452.705,-79.102,-35.156,-201.172,-56.152,-121.582
1744258452.709,-101.074,-41.016,-248.047,-55.664,-25.879
1744258452.713,10.742,-16.602,96.191,-24.414,22.461
1744258452.717,41.992,-16.113,181.641,-3.906,10.742
1744258452.721,-55.664,-34.180,-127.930,-37.598,-67.871
1744258452.725,-98.145,-42.480,-272.461,-83.496,-56.152
1744258452.729,-18.066,-27.832,4.395,-38.086,3.418
1744258452.733,49.316,-16.113,197.266,7.324,20.996
1744258452.737,-29.297,-36.133,-54.199,-33.691,1.465
1744258452.740,-115.723,-46.875,-288.086,-68.848,-61.523
1744258452.744,-59.570,-31.738,-86.914,-26.367,-14.160
1744258452.748,28.809,-16.113,209.961,-0.977,52.734
1744258452.752,0.000,-28.809,82.031,-29.785,-35.645
1744258452.756,-104.980,-49.316,-256.836,-66.895,-157.715
1744258452.760,-115.723,-46.875,-200.684,-61.523,-84.473
1744258452.764,-9.277,-34.668,152.832,-18.066,76.660
1744258452.768,22.949,-32.715,146.484,-20.508,80.566
1744258452.772,-76.172,-40.039,-186.035,-53.711,-18.066
1744258452.776,-95.215,-39.062,-238.281,-59.570,5.859
1744258452.780,3.906,-22.949,88.379,-8.789,46.875
1744258452.783,29.785,-17.578,204.102,1.953,16.602
1744258452.787,-62.500,-35.156,-106.445,-46.387,4.883
1744258452.791,-122.559,-43.945,-267.578,-67.871,-18.066
1744258452.795,-30.762,-23.926,17.090,-34.668,-10.254
1744258452.799,60.059,-13.184,233.398,-10.254,0.488
1744258452.803,-17.578,-34.180,-2.441,-30.762,-72.754
1744258452.807,-113.281,-53.223,-282.227,-59.082,-114.746
1744258452.811,-59.082,-37.598,-121.094,-45.410,-17.578
1744258452.815,33.691,-15.625,191.895,-4.883,-12.695
1744258452.819,8.789,-23.438,104.004,-21.973,-130.371
1744258452.823,-92.285,-44.434,-240.234,-70.801,-181.641
1744258452.826,-90.820,-41.016,-222.656,-50.293,-35.156
1744258452.830,25.879,-17.578,123.535,-12.695,60.059
1744258452.834,49.316,-14.160,166.016,-3.418,-50.781
1744258452.838,-53.711,-39.062,-178.223,-44.434,-74.219
1744258452.842,-103.516,-40.527,-259.277,-81.543,19.043
1744258452.846,-13.184,-22.461,53.711,-35.156,134.766
1744258452.850,40.039,-22.461,184.570,-3.418,46.387
1744258452.854,-59.570,-41.992,-107.910,-29.785,-118.652
1744258452.858,-131.836,-47.363,-311.035,-63.477,-81.055
1744258452.862,-54.199,-30.762,-66.406,-48.828,0.000
1744258452.865,38.086,-11.230,192.871,-5.859,3.418
1744258452.869,-2.930,-24.414,14.160,-26.855,-26.367
1744258452.873,-100.586,-42.480,-276.367,-62.012,-41.992
1744258452.877,-78.613,-36.133,-155.762,-44.434,-49.805
1744258452.881,18.066,-20.996,170.898,-5.859,-6.836
1744258452.885,24.414,-25.879,114.746,-15.625,-9.277
1744258452.889,-73.242,-42.969,-219.727,-69.824,-86.426
1744258452.893,-86.426,-36.621,-214.844,-61.523,-57.617
1744258452.897,3.906,-15.625,125.977,10.742,-25.879
1744258452.901,24.414,-23.438,171.875,7.812,-54.199
1744258452.905,-68.359,-49.805,-173.340,-49.316,-132.324
1744258452.908,-117.676,-40.527,-278.809,-69.824,-101.074
1744258452.912,-31.738,-20.020,47.852,-32.715,6.836
1744258452.916,22.461,-21.484,204.590,-7.324,2.930
1744258452.920,-46.387,-37.109,-64.941,-36.133,-98.145
1744258452.924,-114.258,-45.898,-278.809,-58.594,-162.598
1744258452.928,-53.711,-32.715,-66.406,-35.645,-85.938
1744258452.932,44.922,-20.508,206.055,-3.906,-30.762
1744258452.936,19.043,-29.297,61.035,-20.020,-62.012
1744258452.940,-88.379,-45.898,-252.441,-62.012,-75.684
1744258452.944,-92.285,-43.945,-160.156,-31.250,-51.270
1744258452.947,15.625,-27.832,169.922,33.691,-82.520
1744258452.951,28.809,-34.668,142.090,0.000,-161.133
1744258452.955,-85.449,-60.059,-211.914,-63.477,-167.969
1744258452.959,-95.215,-50.293,-251.465,-53.223,-65.430
1744258452.963,17.090,-23.926,95.703,-15.137,31.250
1744258452.967,42.480,-23.926,185.059,-5.371,-25.391
1744258452.971,-51.270,-40.527,-140.137,-41.992,-105.469
1744258452.975,-112.305,-42.480,-281.250,-61.035,-51.270
1744258452.979,-27.344,-22.461,13.184,-26.855,13.184
1744258452.983,51.758,-8.789,215.820,-4.395,-19.043
1744258452.987,-7.324,-27.344,-30.273,-29.785,-67.383
1744258452.990,-109.375,-44.922,-283.203,-67.383,-23.926
1744258452.994,-89.844,-42.969,-116.211,-48.828,-22.949
1744258452.998,21.484,-31.738,172.852,-18.066,-5.371
1744258453.002,5.859,-33.203,82.031,-14.648,0.000
1744258453.006,-104.492,-47.852,-234.375,-42.480,-57.617
1744258453.010,-91.797,-47.363,-193.359,-61.035,-12.695
1744258453.014,12.207,-25.879,144.043,-27.344,59.570
1744258453.018,10.254,-21.973,137.695,-28.809,0.488
1744258453.022,-89.844,-39.551,-191.895,-67.383,-65.430
1744258453.026,-124.512,-43.457,-252.441,-69.336,-0.488
1744258453.030,-20.508,-19.531,80.566,-20.996,67.383
1744258453.033,41.504,-11.719,198.242,5.859,21.484
1744258453.037,-43.457,-41.016,-108.887,-37.109,-73.730
1744258453.041,-114.746,-58.105,-294.922,-80.078,-87.402
1744258453.045,-41.992,-36.621,-27.832,-39.551,56.152
1744258453.049,47.363,-21.973,210.938,0.000,122.070
1744258453.053,-7.324,-28.320,5.371,-24.902,75.195
1744258453.057,-97.168,-38.086,-268.555,-64.941,14.648
1744258453.061,-56.641,-27.832,-119.141,-37.109,74.707
1744258453.065,40.527,-12.695,187.012,12.695,152.344
1744258453.069,23.926,-20.020,104.980,-12.695,63.477
1744258453.072,-73.730,-33.203,-218.750,-40.039,-6.836
1744258453.076,-81.055,-26.367,-187.988,-37.598,9.277
1744258453.080,29.785,-13.672,160.645,0.977,13.184
1744258453.084,60.547,-26.367,178.223,5.371,-55.664
1744258453.088,-54.199,-43.945,-165.039,-50.781,-183.105
1744258453.092,-106.934,-44.434,-252.930,-70.312,-69.824
1744258453.096,-13.184,-29.785,62.988,-31.250,106.934
1744258453.100,43.457,-20.996,217.773,-5.859,23.438
1744258453.104,-36.621,-41.016,-69.336,-37.109,-51.758
1744258453.108,-106.445,-50.781,-271.973,-66.406,-36.621
1744258453.112,-44.922,-34.668,-38.086,-33.203,-2.930
1744258453.115,43.945,-18.066,209.473,3.418,-1.465
1744258453.119,10.742,-27.344,37.598,-20.020,-97.656
1744258453.123,-91.797,-44.434,-250.488,-70.801,-106.445
1744258453.127,-74.219,-33.691,-137.695,-52.246,-5.859
1744258453.131,34.180,-8.301,194.336,-10.742,-10.742
1744258453.135,28.809,-14.160,128.418,-20.996,5.371
1744258453.139,-86.426,-37.598,-229.004,-40.039,-28.320
1744258453.143,-110.840,-39.551,-237.793,-51.270,-69.824
1744258453.147,-0.977,-15.625,114.258,-18.066,-19.531
1744258453.151,31.738,-15.625,183.105,1.465,-27.344
1744258453.155,-70.801,-39.551,-148.438,-44.434,-25.391
1744258453.158,-125.488,-44.434,-281.250,-62.500,-3.418
1744258453.162,-38.086,-31.250,22.949,-37.109,-38.574
1744258453.166,32.715,-19.043,206.055,-19.531,-40.527
1744258453.170,-43.945,-27.344,-41.992,-44.434,-121.582
1744258453.174,-119.141,-38.574,-265.625,-80.078,-142.578
1744258453.178,-48.828,-29.297,-74.219,-48.340,47.852
1744258453.182,21.973,-24.414,190.430,-6.836,68.359
1744258453.186,-25.391,-38.086,48.340,-24.902,-44.434
1744258453.190,-113.770,-49.316,-250.488,-68.359,-73.730
1744258453.194,-85.938,-35.645,-164.551,-60.547,-23.926
1744258453.198,29.297,-18.555,162.598,-5.859,-24.902
1744258453.201,23.926,-23.926,128.418,-2.441,-37.109
1744258453.205,-80.566,-45.410,-214.355,-61.523,-153.320
1744258453.209,-93.262,-43.457,-249.512,-66.406,-183.594
1744258453.213,-1.953,-20.996,86.426,-20.996,-0.488
1744258453.217,32.227,-19.043,198.730,-22.461,-4.395
1744258453.221,-57.129,-40.527,-116.211,-44.922,-80.078
1744258453.225,-126.465,-47.852,-280.762,-78.125,-46.875
1744258453.229,-47.363,-31.738,-13.184,-65.430,41.016
1744258453.233,26.855,-27.344,191.895,-28.320,82.031
1744258453.237,-49.805,-49.316,-40.527,-60.059,-16.602
1744258453.240,-134.277,-54.688,-285.645,-89.355,-60.059
1744258453.244,-78.613,-37.598,-104.492,-52.734,-9.766
1744258453.248,13.672,-25.391,199.219,-0.977,18.555
1744258453.252,-17.578,-30.762,95.215,-36.133,6.348
1744258453.256,-119.629,-51.758,-248.535,-87.891,6.348
1744258453.260,-110.840,-45.898,-196.289,-58.594,28.809
1744258453.264,13.184,-22.949,167.480,-19.043,34.668
1744258453.268,33.203,-24.414,187.500,-18.555,5.371
1744258453.272,-79.102,-52.246,-179.199,-58.105,-80.078
1744258453.276,-120.117,-62.988,-275.879,-71.777,-130.859
1744258453.280,-21.973,-42.969,54.688,-22.949,-73.242
1744258453.283,39.551,-27.344,194.824,-20.020,-138.184
1744258453.287,-38.086,-41.504,-96.680,-50.781,-187.012
1744258453.291,-104.980,-48.340,-288.574,-66.406,-153.809
1744258453.295,-25.391,-25.879,-32.715,-34.180,-63.965
1744258453.299,45.410,-12.695,202.637,5.371,-66.895
1744258453.303,-7.812,-19.043,7.324,-33.691,-126.465
1744258453.307,-86.426,-33.203,-270.996,-74.219,-80.078
1744258453.311,-49.805,-25.879,-128.906,-25.879,-32.715
1744258453.315,51.758,-8.789,182.617,5.859,23.438
1744258453.319,29.297,-20.996,108.887,-41.016,-21.973
1744258453.322,-83.496,-50.293,-250.977,-66.406,-115.234
1744258453.326,-88.379,-41.992,-244.141,-39.551,-54.199
1744258453.330,23.438,-14.648,122.559,-2.441,12.695
1744258453.334,47.363,-17.090,164.551,-8.789,-54.199
1744258453.338,-58.594,-36.621,-168.457,-45.410,-79.590
1744258453.342,-104.492,-41.504,-276.855,-53.223,-32.715
1744258453.346,-19.043,-23.438,31.250,-6.348,42.969
1744258453.350,42.969,-12.207,206.055,18.555,47.363
1744258453.354,-43.457,-32.227,-61.523,-19.043,-10.742
1744258453.358,-113.770,-41.016,-262.695,-40.039,-15.137
1744258453.362,-40.039,-26.367,-42.480,-19.043,64.453
1744258453.365,29.297,-20.020,212.891,-2.441,41.992
1744258453.369,-18.066,-34.668,53.711,-34.668,-102.051
1744258453.373,-106.445,-52.246,-272.461,-71.777,-73.730
1744258453.377,-88.867,-39.551,-166.016,-62.988,-15.137
1744258453.381,11.719,-17.090,187.012,-20.996,-86.426
1744258453.385,16.602,-26.367,138.672,-28.809,-82.520
1744258453.389,-84.473,-47.852,-207.520,-71.777,-67.871
1744258453.393,-107.422,-48.340,-239.258,-62.988,-58.105
1744258453.397,0.977,-30.762,110.840,-8.301,20.020
1744258453.401,43.945,-26.367,198.242,-3.418,33.203
1744258453.405,-57.617,-37.109,-131.836,-43.457,30.273
1744258453.408,-106.445,-45.410,-277.832,-43.945,60.547
1744258453.412,-17.090,-30.762,15.137,-13.184,85.938
1744258453.416,47.363,-20.996,208.008,12.207,112.793
1744258453.420,-13.184,-32.715,-40.527,-18.555,-38.086
1744258453.424,-113.281,-44.434,-289.062,-68.848,-101.562
1744258453.428,-68.359,-26.367,-76.172,-47.852,-45.898
1744258453.432,44.922,-12.207,217.285,-7.812,84.961
1744258453.436,5.371,-31.250,63.965,-22.461,130.859
1744258453.440,-104.004,-46.875,-269.531,-66.406,53.223
1744258453.444,-88.379,-34.180,-181.152,-45.898,73.730
1744258453.448,14.160,-16.602,169.922,0.977,50.293
1744258453.451,19.531,-23.438,158.203,-11.230,-8.789
1744258453.455,-80.078,-41.016,-188.965,-58.594,-65.430
1744258453.459,-109.863,-43.457,-254.395,-57.129,-72.754
1744258453.463,-6.836,-27.832,74.707,-12.695,-3.418
1744258453.467,40.527,-28.809,181.152,2.441,32.715
1744258453.471,-51.270,-40.039,-124.023,-37.109,-82.520
1744258453.475,-104.492,-38.574,-270.996,-69.824,-129.883
1744258453.479,-26.367,-27.344,-4.883,-38.574,-27.344
1744258453.483,48.828,-20.020,203.125,-6.348,-22.949
1744258453.487,-13.672,-37.598,-19.531,-30.762,-156.250
1744258453.490,-105.957,-44.922,-275.391,-62.012,-111.816
1744258453.494,-65.918,-32.715,-112.305,-32.715,-22.461
1744258453.498,56.152,-10.742,207.031,4.395,-26.855
1744258453.502,30.762,-20.508,109.863,-7.812,-77.148
1744258453.506,-90.820,-43.457,-239.258,-61.523,-127.930
1744258453.510,-97.168,-36.621,-216.797,-42.969,-32.227
1744258453.514,11.719,-16.602,119.629,-11.230,-18.555
1744258453.518,45.410,-17.090,137.207,-37.109,-118.164
1744258453.522,-71.777,-35.156,-194.336,-66.895,-139.160
1744258453.526,-109.863,-28.320,-252.930,-75.684,-78.613
1744258453.530,2.441,-3.906,81.055,-23.438,-26.855
1744258453.533,52.246,-7.812,208.008,4.883,-109.863
1744258453.537,-41.504,-37.598,-88.379,-32.715,-112.305
1744258453.541,-119.141,-45.410,-285.156,-62.500,-35.645
1744258453.545,-50.781,-26.855,-28.809,-36.133,57.617
1744258453.549,29.297,-20.020,210.449,-1.465,68.848
1744258453.553,-21.484,-27.344,12.695,-30.762,17.090
1744258453.557,-109.375,-49.805,-288.574,-75.684,16.602
1744258453.561,-77.148,-44.922,-166.992,-53.711,-1.465
1744258453.565,38.086,-15.137,171.875,2.930,-20.996
1744258453.569,22.461,-21.973,119.629,11.230,-131.836
1744258453.573,-96.191,-51.758,-231.445,-49.805,-166.992
1744258453.576,-100.586,-46.875,-230.469,-60.547,-51.758
1744258453.580,2.930,-24.414,114.746,-3.418,-7.324
1744258453.584,43.457,-18.066,177.246,9.766,0.488
1744258453.588,-34.668,-38.086,-151.367,-41.016,-61.523
1744258453.592,-97.656,-41.504,-251.953,-62.500,-86.426
1744258453.596,-22.461,-25.391,48.340,-16.602,-55.176
1744258453.600,52.246,-17.090,204.102,4.395,-64.453
1744258453.604,-27.832,-33.203,-68.848,-35.156,-124.023
1744258453.608,-105.469,-42.969,-274.902,-63.965,-127.441
1744258453.612,-47.852,-25.391,-48.340,-29.785,-34.180
1744258453.615,41.016,-17.578,195.801,31.250,-33.691
1744258453.619,11.230,-34.668,34.668,-7.812,-75.195
1744258453.623,-88.379,-45.898,-265.137,-81.055,-117.188
1744258453.627,-73.242,-34.668,-167.969,-55.176,-128.418
1744258453.631,33.203,-18.555,177.734,-6.836,1.465
1744258453.635,35.645,-24.414,150.391,-15.625,-32.227
1744258453.639,-65.918,-39.551,-187.988,-53.223,-169.434
1744258453.643,-82.031,-43.457,-209.473,-47.363,-69.336
1744258453.647,19.531,-28.320,113.770,0.000,55.664
1744258453.651,62.012,-29.297,187.500,5.859,20.508
1744258453.655,-55.176,-52.246,-135.254,-49.805,-33.691
1744258453.658,-117.188,-50.781,-268.555,-62.012,-41.016
1744258453.662,-10.254,-24.414,32.227,-31.738,-5.371
1744258453.666,65.430,-20.020,215.332,-15.625,-3.418
1744258453.670,-22.461,-41.992,-39.062,-43.457,-73.730
1744258453.674,-117.188,-57.617,-297.363,-73.242,-91.309
1744258453.678,-69.336,-45.898,-93.750,-23.438,-27.832
1744258453.682,36.133,-21.484,216.309,4.395,19.043
1744258453.686,5.859,-25.879,92.773,-25.879,-15.625
1744258453.690,-109.863,-51.758,-251.953,-48.828,-16.602
1744258453.694,-94.238,-44.434,-188.477,-48.340,30.762
1744258453.698,12.207,-20.508,155.762,-19.043,74.219
1744258453.701,36.133,-20.508,140.137,-6.348,12.695
1744258453.705,-61.523,-38.574,-204.590,-43.457,-83.984
1744258453.709,-108.398,-39.551,-247.559,-58.105,-26.855
1744258453.713,-5.371,-19.531,80.566,-15.625,-53.223
1744258453.717,45.410,-13.672,186.523,-8.301,-152.832
1744258453.721,-57.129,-27.344,-118.652,-52.734,-190.430
1744258453.725,-127.441,-36.133,-288.086,-70.801,-142.578
1744258453.729,-40.039,-27.344,-14.160,-45.410,-6.836
1744258453.733,60.059,-12.695,207.520,-17.090,40.527
1744258453.737,0.000,-20.996,-8.789,-33.691,-85.938
1744258453.741,-109.375,-41.992,-285.156,-73.242,-90.332
1744258453.744,-77.637,-39.551,-134.277,-61.035,78.125
1744258453.748,27.832,-18.555,169.434,-18.066,87.402
1744258453.752,10.742,-19.531,79.590,-9.277,10.742
1744258453.756,-99.609,-36.133,-236.816,-38.086,-1.953
1744258453.760,-103.027,-37.598,-222.168,-44.434,-14.648
1744258453.764,19.531,-19.531,115.723,-17.578,23.926
1744258453.768,50.781,-22.949,146.973,-11.719,33.691
1744258453.772,-52.734,-41.992,-187.500,-61.035,-56.152
1744258453.776,-110.352,-44.434,-266.113,-73.730,-84.473
1744258453.780,-21.484,-24.902,69.824,-20.996,-13.672
1744258453.783,36.621,-22.461,216.797,6.348,9.766
1744258453.787,-45.898,-39.062,-74.219,-41.504,-91.309
1744258453.791,-115.234,-54.688,-291.992,-77.148,-67.383
1744258453.795,-55.664,-42.480,-58.594,-46.387,-25.391
1744258453.799,35.156,-22.949,185.059,-16.602,-57.617
1744258453.803,-7.324,-30.273,4.883,-39.551,-5.371
1744258453.807,-109.375,-45.410,-267.578,-69.336,3.418
1744258453.811,-79.102,-33.203,-137.207,-50.781,-21.484
1744258453.815,22.949,-20.508,181.641,1.465,43.945
1744258453.819,15.625,-25.391,118.652,-7.324,-21.973
1744258453.823,-91.309,-40.527,-219.727,-75.684,-73.730
1744258453.826,-98.145,-40.527,-216.309,-81.543,70.801
1744258453.830,23.438,-23.926,131.348,-25.391,140.137
1744258453.834,35.645,-29.785,186.035,-12.695,27.832
1744258453.838,-85.938,-50.293,-154.297,-71.289,-32.715
1744258453.842,-131.348,-48.828,-277.832,-85.449,51.270
1744258453.846,-44.922,-27.832,28.809,-23.438,51.758
1744258453.850,31.738,-15.137,225.586,-10.742,12.207
1744258453.854,-23.926,-30.762,-46.387,-41.504,39.062
1744258453.858,-115.723,-45.898,-299.316,-64.453,71.777
1744258453.862,-66.895,-35.156,-82.031,-44.434,53.223
1744258453.866,34.180,-20.020,200.195,-11.230,-11.230
1744258453.869,-8.301,-27.832,46.387,-17.578,-28.809
1744258453.873,-104.004,-39.551,-250.000,-53.711,-71.777
1744258453.877,-90.332,-31.738,-153.809,-57.617,-94.727
1744258453.881,20.996,-25.391,160.156,-6.348,-23.438
1744258453.885,31.738,-32.227,123.535,-8.301,-36.621
1744258453.889,-86.426,-41.016,-219.727,-75.684,-84.473
1744258453.893,-98.145,-32.715,-250.977,-77.637,-50.293
1744258453.897,4.395,-18.066,92.285,-16.113,4.395
1744258453.901,43.945,-20.508,182.617,-3.906,4.883
1744258453.905,-49.805,-37.598,-128.906,-57.129,-124.023
1744258453.908,-109.863,-40.527,-269.531,-72.266,-158.691
1744258453.912,-22.949,-22.461,18.066,-30.273,-39.551
1744258453.916,54.688,-15.137,217.773,-11.719,-4.883
1744258453.920,-16.602,-27.832,-19.043,-32.715,-64.453
1744258453.924,-111.328,-39.551,-260.254,-59.570,-74.219
1744258453.928,-56.641,-31.250,-90.820,-49.316,58.594
1744258453.932,49.316,-17.578,188.477,-20.020,102.051
1744258453.936,17.578,-27.344,75.195,-24.902,-8.789
1744258453.940,-91.797,-39.062,-232.422,-72.754,-28.320
1744258453.944,-81.055,-33.203,-177.734,-72.754,-34.180
1744258453.948,19.043,-21.973,150.879,-18.555,-14.160
1744258453.951,33.691,-27.344,151.855,-12.207,-87.402
1744258453.955,-73.730,-40.039,-196.289,-59.082,-178.711
1744258453.959,-105.957,-30.273,-251.465,-62.500,-109.375
1744258453.963,-2.930,-11.719,86.914,-15.625,0.977
1744258453.967,40.039,-11.230,211.426,-0.977,-4.883
1744258453.971,-48.340,-36.621,-97.656,-36.133,-112.793
1744258453.975,-114.258,-48.340,-268.555,-84.473,-115.723
1744258453.979,-50.293,-32.227,-15.137,-61.035,-33.691
1744258453.983,21.484,-24.902,194.824,-25.879,11.230
1744258453.987,-29.785,-43.457,-10.742,-36.621,-7.324
1744258453.990,-109.375,-46.387,-275.391,-77.637,-32.227
1744258453.994,-81.543,-27.832,-124.023,-78.613,-17.090
1744258453.998,18.066,-12.207,185.059,-21.973,-8.789
1744258454.002,9.766,-21.484,92.773,-37.109,-20.508
1744258454.006,-91.797,-41.992,-244.141,-72.266,-51.270
1744258454.010,-94.238,-38.574,-219.727,-49.316,-60.547
1744258454.014,21.973,-10.254,142.090,-15.625,-66.895
1744258454.018,52.246,-14.160,172.363,-17.090,-142.090
1744258454.022,-62.500,-42.480,-176.758,-46.875,-119.141
1744258454.026,-111.328,-40.039,-270.508,-53.223,-59.082
1744258454.030,-12.207,-21.484,35.156,-16.602,-125.488
1744258454.033,49.805,-15.625,181.641,-9.766,-91.309
1744258454.037,-14.648,-29.785,-78.125,-44.434,21.484
1744258454.041,-96.680,-43.945,-291.016,-62.988,16.602
1744258454.045,-47.852,-24.902,-64.941,-28.320,22.949
1744258454.049,47.852,-7.812,188.477,9.277,37.598
1744258454.053,16.113,-21.484,22.461,-7.324,-20.996
1744258454.057,-90.820,-38.574,-265.625,-38.574,-31.250
1744258454.061,-81.543,-30.762,-144.043,-28.809,92.285
1744258454.065,26.367,-15.137,181.641,13.184,126.953
1744258454.069,26.855,-22.949,136.230,23.438,-24.902
1744258454.073,-87.891,-47.363,-218.262,-43.457,-104.980
1744258454.076,-104.492,-47.363,-230.469,-61.523,-87.891
1744258454.080,-7.324,-29.297,113.281,-6.348,-50.781
1744258454.084,32.227,-20.020,188.477,-4.395,-43.945
1744258454.088,-51.758,-37.598,-129.883,-62.988,-59.082
1744258454.092,-116.699,-51.758,-271.484,-68.359,-59.570
1744258454.096,-33.691,-35.156,22.949,-8.301,-52.246
1744258454.100,46.387,-22.461,200.684,-7.324,-37.109
1744258454.104,-10.254,-32.715,-54.199,-43.457,-75.195
1744258454.108,-89.844,-42.480,-280.762,-60.059,-93.262
1744258454.112,-48.828,-32.715,-79.102,-30.762,-29.297
1744258454.116,47.363,-18.066,205.566,7.324,-21.484
1744258454.119,21.484,-29.297,48.828,-20.020,-99.609
1744258454.123,-93.750,-49.316,-284.668,-65.918,-81.055
1744258454.127,-86.914,-39.551,-191.406,-53.223,-5.371
1744258454.131,23.926,-20.996,166.504,-5.371,44.922
1744258454.135,31.250,-26.855,131.836,-12.695,38.086
1744258454.139,-70.801,-41.016,-221.191,-59.570,-1.465
1744258454.143,-97.656,-39.551,-248.047,-55.176,34.668
1744258454.147,-0.977,-21.484,107.422,-5.859,92.285
1744258454.151,38.086,-16.113,196.777,-6.836,54.688
1744258454.155,-52.246,-33.203,-115.723,-24.902,-34.180
1744258454.158,-110.840,-47.852,-278.320,-49.316,-15.137
1744258454.162,-36.621,-34.180,-10.742,-44.434,18.066
